ECG,EMG,PLETH,HR,FP2_F4,FP1_F3,C3_P3,C4_A1
26,713,3195,-5895,-1323,715,360,700
23,1392,3195,-5895,-1288,891,395,692
18,1555,3195,-5895,-1230,1118,453,691
12,1262,3195,-5895,-1163,1335,517,681
6,1074,3243,-5895,-1109,1519,578,674
1,1192,3243,-5895,-1081,1677,632,662
-2,1321,3243,-5895,-1061,1826,677,629
-6,1123,3243,-5895,-1026,1979,711,577
-9,767,3309,-5895,-966,2136,738,524
-12,504,3309,-5895,-898,2284,755,494
-15,198,3309,-5895,-853,2398,763,494
-17,-149,3309,-5895,-832,2456,763,512
-17,-358,3358,-5895,-822,2450,757,550
-17,-592,3358,-5895,-817,2385,743,609
-17,-784,3358,-5895,-814,2285,728,662
-17,-591,3358,-5895,-811,2190,717,697
-17,-295,3396,-5895,-803,2130,713,713
-18,-323,3396,-5895,-790,2118,717,709
-20,-617,3396,-5895,-776,2155,727,689
-23,-876,3396,-5895,-766,2222,737,666
-24,-822,3434,-5895,-762,2292,744,654
-24,-574,3434,-5895,-766,2341,744,659
-24,-432,3434,-5895,-774,2355,737,675
-24,-452,3434,-5895,-780,2329,726,689
-23,-523,3476,-5895,-771,2277,712,690
-22,-459,3476,-5895,-753,2214,696,681
-22,-226,3476,-5895,-732,2159,678,665
-22,73,3476,-5895,-700,2127,664,636
-22,305,3509,-5895,-655,2126,655,584
-23,278,3509,-5895,-608,2146,650,528
-22,134,3509,-5895,-585,2167,646,504
-21,27,3509,-5895,-597,2174,643,526
-20,-306,3547,-5895,-634,2159,639,586
-19,-579,3547,-5895,-673,2127,638,667
-19,-461,3547,-5895,-697,2089,643,755
-17,-353,3547,-5895,-700,2046,655,841
-16,-305,3601,-5895,-700,2000,670,911
-14,-152,3601,-5895,-707,1976,683,964
-13,-13,3601,-5895,-711,1989,694,998
-12,19,3601,-5895,-703,2022,699,1005
-11,-89,3637,-5895,-682,2061,697,987
-10,-281,3637,-5895,-654,2091,683,938
-10,-491,3637,-5895,-622,2096,658,875
-10,-706,3637,-5895,-587,2075,632,831
-11,-621,3619,-5895,-559,2031,616,810
-12,-49,3619,-5895,-540,1971,615,802
-14,522,3619,-5895,-528,1906,624,819
-14,678,3619,-5895,-524,1837,639,852
-15,609,3536,-5895,-521,1767,657,881
-16,479,3536,-5895,-500,1726,675,914
-16,150,3536,-5895,-455,1738,691,969
-15,-221,3536,-5895,-418,1788,701,1042
-12,-243,3437,-5895,-408,1842,706,1118
-10,-25,3437,-5895,-413,1877,707,1166
-8,91,3437,-5895,-420,1896,701,1172
-6,124,3437,-5895,-429,1911,685,1145
-6,-10,3359,-5895,-435,1917,661,1117
-5,-116,3359,-5895,-439,1903,634,1102
-4,392,3359,-5895,-440,1863,607,1098
-3,755,3359,-5895,-441,1807,581,1107
-4,163,3297,-5895,-447,1760,559,1130
-8,-447,3297,-5895,-459,1729,543,1144
-13,-489,3297,-5895,-469,1708,536,1145
-17,-268,3297,-5895,-474,1693,533,1155
-19,-59,3218,-5895,-483,1679,531,1177
-19,-73,3218,-5895,-497,1669,528,1192
-19,-160,3218,-5895,-506,1666,523,1197
-19,-173,3218,-5895,-500,1668,515,1201
-18,-219,3093,-5895,-487,1671,509,1207
-17,-178,3093,-5895,-473,1690,507,1213
-15,102,3093,-5895,-458,1734,512,1212
-14,395,3093,-5895,-443,1777,521,1191
-15,367,2938,-5895,-422,1801,531,1146
-17,101,2938,-5895,-393,1809,535,1088
-17,-98,2938,-5895,-363,1800,536,1022
-17,-248,2938,-5895,-341,1777,534,946
-16,-281,2780,-5895,-331,1750,530,849
-16,13,2780,-5895,-326,1733,525,735
-16,326,2780,-5895,-317,1737,518,625
-16,294,2780,-5895,-297,1759,511,542
-16,92,2635,-5895,-260,1790,506,498
-14,-31,2635,-5895,-189,1813,500,495
-11,59,2635,-5895,-75,1816,494,512
-8,303,2635,-5895,39,1795,486,540
-7,247,2496,-5895,109,1755,479,574
-6,-190,2496,-5895,133,1707,473,606
-5,-427,2496,-5895,123,1666,469,638
-4,-238,2496,-5895,91,1639,465,677
-3,-32,2341,-5895,46,1628,460,720
-4,-46,2341,-5895,-5,1631,456,760
-5,-46,2341,-5895,-56,1639,452,797
-5,147,2341,-5895,-96,1645,443,837
-5,290,2177,-5895,-124,1643,428,874
-6,117,2177,-5895,-142,1627,412,890
-8,-167,2177,-5895,-152,1593,395,895
-9,-368,2177,-5895,-153,1551,382,915
-10,-547,2023,-5895,-147,1513,375,960
-11,-484,2023,-5895,-134,1484,376,1016
-11,-88,2023,-5895,-110,1465,386,1057
-11,250,2023,-5895,-74,1458,405,1066
-10,318,1905,-5895,-36,1464,425,1051
-9,289,1905,-5895,-12,1471,438,1030
-10,300,1905,-5895,-2,1477,440,999
-12,169,1905,-5895,4,1490,443,955
-12,-113,1821,-5895,18,1504,451,899
-12,-41,1821,-5895,45,1511,457,833
-11,259,1821,-5895,86,1513,452,758
-10,119,1821,-5895,138,1512,438,681
-10,-258,1750,-5895,194,1512,419,611
-10,-302,1750,-5895,252,1514,399,556
-9,-52,1750,-5895,326,1516,385,522
-7,81,1750,-5895,409,1518,377,504
-6,-139,1678,-5895,466,1515,374,499
-6,-432,1678,-5895,471,1506,373,510
-7,-462,1678,-5895,429,1494,371,526
-10,-182,1678,-5895,357,1476,369,545
-13,385,1593,-5895,277,1459,370,575
-14,791,1593,-5895,204,1444,374,619
-14,662,1593,-5895,141,1431,380,672
-15,272,1593,-5895,86,1420,386,711
-17,-155,1510,-5895,41,1414,390,732
-18,-369,1510,-5895,8,1422,392,746
-16,-208,1510,-5895,-7,1451,392,756
-13,69,1510,-5895,7,1490,390,751
-11,295,1448,-5895,54,1517,388,723
-8,466,1448,-5895,120,1518,388,699
-4,563,1448,-5895,188,1497,391,713
-1,292,1448,-5895,244,1471,397,746
0,-357,1424,-5895,289,1449,399,767
1,-774,1424,-5895,323,1430,393,780
2,-793,1424,-5895,348,1405,383,797
1,-569,1424,-5895,361,1366,370,822
1,-257,1429,-5895,363,1323,358,850
3,-16,1429,-5895,351,1292,347,871
3,243,1429,-5895,324,1275,339,880
4,362,1429,-5895,297,1265,336,875
3,161,1427,-5895,284,1260,336,855
3,-23,1427,-5895,292,1262,338,809
2,38,1427,-5895,306,1274,339,754
1,191,1427,-5895,309,1292,341,714
0,212,1418,-5895,297,1310,343,688
-2,33,1418,-5895,282,1320,346,667
-5,-142,1418,-5895,277,1320,350,654
-7,-184,1418,-5895,288,1307,353,658
-9,-221,1425,-5895,307,1286,355,667
-10,-239,1425,-5895,330,1259,356,671
-11,-126,1425,-5895,357,1232,354,672
-10,4,1425,-5895,388,1212,347,678
-9,64,1470,-5895,426,1200,339,686
-7,254,1470,-5895,464,1195,332,691
-4,487,1470,-5895,514,1192,326,692
-1,383,1470,-5895,602,1191,320,690
2,107,1527,-5895,708,1193,315,689
4,-21,1527,-5895,782,1200,317,699
4,-78,1527,-5895,803,1209,325,724
2,-185,1527,-5895,774,1213,334,762
1,-122,1559,-5895,709,1213,343,807
0,238,1559,-5895,631,1212,353,854
0,524,1559,-5895,556,1210,367,900
1,374,1559,-5895,488,1210,381,945
1,-76,1579,-5895,430,1205,389,992
0,-345,1579,-5895,383,1196,392,1037
-1,-303,1579,-5895,354,1194,387,1069
-1,-131,1579,-5895,350,1198,373,1069
-2,29,1615,-5895,363,1197,352,1031
-2,-59,1615,-5895,385,1180,327,966
-2,-302,1615,-5895,412,1149,298,895
0,-265,1615,-5895,458,1126,272,834
2,-62,1687,-5895,529,1134,252,760
3,-6,1687,-5895,594,1174,240,663
4,94,1687,-5895,629,1226,237,569
4,307,1687,-5895,640,1265,240,484
4,499,1773,-5895,639,1278,245,404
3,541,1773,-5895,630,1272,253,346
2,416,1773,-5895,614,1255,262,315
0,226,1773,-5895,598,1236,270,298
-1,-287,1854,-5895,587,1221,278,284
-2,-927,1854,-5895,580,1206,280,268
-3,-986,1854,-5895,578,1192,277,250
-3,-612,1854,-5895,578,1180,269,236
-3,-315,1934,-5895,580,1171,259,247
-4,-113,1934,-5895,584,1166,249,294
-6,124,1934,-5895,590,1169,241,351
-7,560,1934,-5895,601,1182,236,396
-6,879,2012,-5895,624,1202,233,428
-6,429,2012,-5895,661,1225,228,457
-7,-363,2012,-5895,707,1242,220,500
-9,-493,2012,-5895,756,1249,212,562
-10,195,2090,-5895,794,1241,204,635
-10,693,2090,-5895,820,1219,192,714
-8,131,2090,-5895,835,1188,180,774
-6,-685,2090,-5895,831,1154,173,785
-4,-677,2162,-5895,808,1122,171,752
-4,-132,2162,-5895,779,1094,175,705
-5,127,2162,-5895,750,1073,183,670
-6,33,2162,-5895,729,1058,194,653
-8,10,2242,-5895,719,1044,208,640
-10,159,2242,-5895,724,1031,221,629
-12,294,2242,-5895,740,1015,230,618
-13,182,2242,-5895,781,993,238,624
-13,200,2333,-5895,865,967,244,652
-12,585,2333,-5895,957,941,250,691
-10,513,2333,-5895,1011,921,253,737
-9,-87,2333,-5895,1027,909,254,785
-9,-423,2409,-5895,1031,902,253,827
-8,-439,2409,-5895,1041,898,252,876
-5,-313,2409,-5895,1042,892,251,945
-1,-84,2409,-5895,1008,886,249,1026
1,156,2449,-5895,937,884,243,1069
2,297,2449,-5895,849,883,235,1045
2,43,2449,-5895,763,879,226,981
0,-111,2449,-5895,687,865,214,923
-2,276,2459,-5895,625,838,199,889
-5,394,2459,-5895,580,810,184,862
-6,0,2459,-5895,554,795,171,828
-5,-383,2459,-5895,543,791,156,803
-5,-467,2484,-5895,544,798,140,806
-4,-368,2484,-5895,556,823,125,824
-2,-384,2484,-5895,576,859,111,845
-1,-359,2484,-5895,600,883,101,869
0,-121,2542,-5895,622,884,99,900
-1,-47,2542,-5895,640,859,104,954
-2,-150,2542,-5895,651,825,118,1024
-3,-110,2542,-5895,653,792,136,1078
-5,-128,2620,-5895,646,761,155,1105
-7,-100,2620,-5895,635,731,171,1108
-10,271,2620,-5895,631,705,184,1081
-11,617,2620,-5895,637,689,195,1031
-12,590,2702,-5895,650,684,207,975
-11,205,2702,-5895,661,692,219,912
-10,-273,2702,-5895,669,711,230,832
-10,-362,2702,-5895,674,738,242,747
-10,-49,2776,-5895,694,767,255,673
-8,253,2776,-5895,759,793,265,613
-5,303,2776,-5895,871,808,268,564
-1,243,2776,-5895,982,798,263,530
0,550,2856,-5895,1048,771,253,505
2,723,2856,-5895,1064,751,240,490
3,54,2856,-5895,1053,744,224,496
5,-572,2856,-5895,1034,747,203,523
5,-486,2938,-5895,1009,757,179,567
4,-191,2938,-5895,986,771,161,610
1,-78,2938,-5895,961,788,152,640
0,-189,2938,-5895,922,812,152,677
-2,-467,3019,-5895,869,841,160,735
-2,-581,3019,-5895,823,869,177,785
-1,-138,3019,-5895,793,891,195,800
0,414,3019,-5895,784,907,207,785
1,282,3100,-5895,801,916,213,767
1,-279,3100,-5895,841,916,215,768
0,-431,3100,-5895,888,911,212,787
-2,7,3100,-5895,930,905,204,809
-2,468,3178,-5895,959,898,191,824
-1,415,3178,-5895,977,891,177,838
-1,0,3178,-5895,987,882,164,857
0,-469,3178,-5895,991,867,154,881
1,-587,3260,-5895,988,845,148,915
0,33,3260,-5895,981,808,148,958
0,511,3260,-5895,977,754,155,989
-1,302,3260,-5895,976,697,166,1005
-1,156,3332,-5895,977,657,178,1028
0,194,3332,-5895,978,636,187,1062
1,58,3332,-5895,976,629,190,1074
2,-245,3332,-5895,970,635,187,1049
3,-427,3401,-5895,961,650,178,998
3,-285,3401,-5895,953,667,160,927
2,-22,3401,-5895,955,689,137,840
3,2,3401,-5895,966,718,116,745
4,-128,3473,-5895,985,745,98,647
4,-68,3473,-5895,1007,751,84,558
4,87,3473,-5895,1029,727,73,498
4,339,3473,-5895,1037,678,63,486
4,669,3552,-5895,1023,621,56,522
5,460,3552,-5895,997,569,49,574
6,-360,3552,-5895,969,532,39,617
7,-902,3552,-5895,963,509,23,648
7,-750,3633,-5895,1004,494,3,666
7,-343,3633,-5895,1068,486,-14,677
7,16,3633,-5895,1103,479,-30,694
8,207,3633,-5895,1104,473,-39,707
8,-55,3683,-5895,1108,467,-42,693
7,-540,3683,-5895,1134,460,-41,669
6,-528,3683,-5895,1158,451,-37,669
6,-63,3683,-5895,1150,445,-31,695
6,271,3706,-5895,1109,443,-24,735
6,331,3706,-5895,1048,444,-21,777
8,358,3706,-5895,980,447,-19,797
9,499,3706,-5895,912,454,-18,791
10,670,3730,-5895,849,460,-15,763
11,710,3730,-5895,803,455,-14,718
12,352,3730,-5895,780,441,-13,666
13,-278,3730,-5895,775,433,-10,605
15,-587,3788,-5895,788,445,-3,533
17,-348,3788,-5895,814,473,2,455
17,9,3788,-5895,846,509,8,382
17,-100,3788,-5895,882,542,14,330
15,-357,3865,-5895,922,571,21,307
14,4,3865,-5895,968,598,31,310
12,569,3865,-5895,1009,618,41,332
9,507,3865,-5895,1035,627,50,356
6,39,3906,-5895,1046,627,57,370
3,-111,3906,-5895,1046,622,64,376
2,155,3906,-5895,1045,616,73,382
3,273,3906,-5895,1048,609,87,383
4,44,3904,-5895,1060,609,98,377
5,-130,3904,-5895,1077,629,105,371
6,-78,3904,-5895,1092,668,107,357
8,-26,3904,-5895,1100,703,105,328
9,-46,3885,-5895,1105,715,98,294
10,121,3885,-5895,1114,705,89,252
11,354,3885,-5895,1133,684,79,194
11,258,3885,-5895,1158,659,69,156
9,-126,3884,-5895,1201,636,60,164
7,-298,3884,-5895,1267,618,54,200
4,-289,3884,-5895,1321,599,50,250
2,-781,3884,-5895,1324,569,49,320
0,-1171,3896,-5895,1281,534,51,413
0,-490,3896,-5895,1226,505,58,505
1,496,3896,-5895,1183,490,65,577
0,799,3896,-5895,1158,486,71,623
1,466,3894,-5895,1172,493,76,622
3,71,3894,-5895,1228,503,79,579
5,19,3894,-5895,1281,504,80,541
6,155,3894,-5895,1296,495,80,516
8,270,3886,-5895,1276,487,76,483
9,184,3886,-5895,1235,477,67,428
9,-110,3886,-5895,1180,464,56,348
7,-72,3886,-5895,1116,451,45,249
4,-8,3886,-5895,1052,441,33,153
2,-511,3886,-5895,995,435,21,80
1,-590,3886,-5895,953,435,12,19
0,244,3886,-5895,932,437,8,-34
0,758,3915,-5895,922,438,4,-65
-1,409,3915,-5895,913,435,0,-53
-3,-69,3915,-5895,915,426,-4,-18
-3,-158,3915,-5895,938,410,-5,6
-2,99,3956,-5895,977,393,0,23
0,299,3956,-5895,1024,377,10,50
2,8,3956,-5895,1072,367,22,96
4,-574,3956,-5895,1111,366,36,152
5,-1026,3984,-5895,1129,372,49,200
6,-1165,3984,-5895,1127,385,58,245
7,-605,3984,-5895,1115,415,62,301
7,482,3984,-5895,1101,458,62,350
9,1261,3997,-5895,1093,493,59,369
10,1463,3997,-5895,1097,505,56,352
10,1072,3997,-5895,1116,495,57,332
9,372,3997,-5895,1142,476,65,335
8,-24,3989,-5895,1168,452,76,353
8,-8,3989,-5895,1205,426,92,365
8,176,3989,-5895,1261,401,112,374
9,275,3989,-5895,1318,373,130,375
9,86,3988,-5895,1343,340,142,360
9,-471,3988,-5895,1332,314,146,329
8,-1062,3988,-5895,1300,305,146,290
6,-975,3988,-5895,1260,310,141,239
3,-158,4009,-5895,1221,325,129,169
1,435,4009,-5895,1193,347,114,96
0,335,4009,-5895,1178,375,101,47
1,79,4009,-5895,1170,403,87,37
1,-103,4063,-5895,1158,429,71,60
2,-403,4063,-5895,1136,448,54,97
2,-687,4063,-5895,1109,463,40,117
2,-384,4063,-5895,1089,473,35,98
2,604,4132,-5895,1079,479,36,47
2,1153,4132,-5895,1084,480,40,-19
3,743,4132,-5895,1101,478,45,-85
4,281,4132,-5895,1122,474,48,-140
4,269,4165,-5895,1142,464,50,-198
4,168,4165,-5895,1155,450,51,-256
4,-338,4165,-5895,1162,435,54,-290
5,-653,4165,-5895,1165,424,57,-294
5,-436,4156,-5895,1167,417,62,-268
5,-92,4156,-5895,1169,410,69,-213
6,-36,4156,-5895,1175,398,73,-143
6,-194,4156,-5895,1180,383,71,-68
7,-300,4133,-5895,1184,366,62,11
7,-286,4133,-5895,1188,349,50,83
6,31,4133,-5895,1186,332,37,128
5,383,4133,-5895,1176,314,24,151
4,335,4162,-5895,1164,295,14,176
3,101,4162,-5895,1152,277,9,219
2,-232,4162,-5895,1137,256,6,272
1,-681,4162,-5895,1121,235,4,316
0,-558,4248,-5895,1108,217,5,345
0,263,4248,-5895,1103,206,8,364
0,659,4248,-5895,1104,202,12,381
0,303,4248,-5895,1107,200,17,398
1,-139,4329,-5895,1099,197,22,414
1,-471,4329,-5895,1076,188,28,426
2,-598,4329,-5895,1044,174,38,445
3,-194,4329,-5895,1014,158,48,473
3,335,4366,-5895,998,143,54,492
3,351,4366,-5895,994,129,58,499
2,123,4366,-5895,985,121,62,495
1,47,4366,-5895,971,120,63,477
-1,-67,4367,-5895,963,120,59,451
-3,-144,4367,-5895,964,115,51,431
-5,119,4367,-5895,976,101,43,414
-5,332,4367,-5895,989,81,33,400
-4,136,4397,-5895,992,69,23,394
-5,-141,4397,-5895,981,73,15,393
-5,-256,4397,-5895,969,87,9,376
-5,-315,4397,-5895,964,107,4,338
-5,-143,4462,-5895,971,131,-1,297
-4,369,4462,-5895,989,159,-6,274
-2,608,4462,-5895,1016,189,-10,259
-2,166,4462,-5895,1049,218,-12,234
-2,-312,4519,-5895,1080,238,-14,199
-1,-257,4519,-5895,1101,244,-17,167
-1,-37,4519,-5895,1113,241,-20,139
-1,7,4519,-5895,1117,237,-22,117
-2,44,4538,-5895,1116,234,-17,119
-3,150,4538,-5895,1109,229,-7,132
-2,160,4538,-5895,1096,213,4,101
-1,-6,4538,-5895,1084,187,15,9
1,-286,4526,-5895,1089,166,27,-106
3,-292,4526,-5895,1114,159,39,-204
5,164,4526,-5895,1168,163,50,-246
7,689,4526,-5895,1250,176,55,-227
7,956,4528,-5895,1319,193,55,-185
7,813,4528,-5895,1340,208,51,-141
6,364,4528,-5895,1313,220,40,-94
4,-74,4528,-5895,1261,229,26,-48
2,-620,4538,-5895,1199,236,12,2
0,-1481,4538,-5895,1134,227,4,72
-1,-1622,4538,-5895,1079,186,5,158
-3,-330,4538,-5895,1039,129,17,250
-5,915,4544,-5895,1014,88,35,331
-6,886,4544,-5895,1000,74,55,383
-5,135,4544,-5895,1002,79,71,419
-4,-402,4544,-5895,1023,89,82,453
-3,-403,4541,-5895,1055,97,84,465
-2,-233,4541,-5895,1088,104,78,435
-1,-207,4541,-5895,1121,115,65,378
0,-37,4541,-5895,1150,135,46,317
1,310,4530,-5895,1172,159,23,259
1,465,4530,-5895,1180,179,3,214
1,232,4530,-5895,1175,191,-12,196
0,-249,4530,-5895,1157,197,-27,188
-2,-596,4527,-5895,1130,194,-38,170
-5,-643,4527,-5895,1108,185,-45,160
-7,-331,4527,-5895,1095,173,-48,164
-7,385,4527,-5895,1089,160,-44,171
-7,1116,4525,-5895,1089,150,-34,181
-6,1265,4525,-5895,1093,141,-23,190
-6,772,4525,-5895,1091,130,-10,188
-6,215,4525,-5895,1067,115,0,184
-5,-231,4522,-5895,1024,93,10,187
-3,-619,4522,-5895,983,68,19,184
-3,-478,4522,-5895,951,45,26,170
-4,-21,4522,-5895,926,20,30,146
-4,119,4498,-5895,907,-10,31,110
-3,86,4498,-5895,894,-47,30,67
-3,59,4498,-5895,885,-83,26,33
-3,229,4498,-5895,880,-104,21,24
-2,723,4442,-5895,879,-105,15,30
-1,759,4442,-5895,876,-92,11,34
0,-304,4442,-5895,868,-70,7,43
2,-1532,4442,-5895,858,-47,1,88
4,-1537,4375,-5895,851,-23,-2,172
6,-423,4375,-5895,847,5,-3,259
5,550,4375,-5895,851,31,-2,320
4,613,4375,-5895,865,51,-1,360
2,167,4310,-5895,887,63,-1,397
0,-52,4310,-5895,911,66,-5,442
-1,104,4310,-5895,931,65,-14,477
-3,293,4310,-5895,944,66,-23,484
-4,31,4258,-5895,949,66,-28,458
-5,-522,4258,-5895,952,61,-27,397
-5,-689,4258,-5895,961,54,-21,315
-4,-193,4258,-5895,970,51,-11,240
-2,489,4192,-5895,968,52,3,191
0,517,4192,-5895,956,58,15,161
2,10,4192,-5895,943,67,22,156
4,-126,4192,-5895,931,79,25,181
5,321,4085,-5895,921,91,29,220
6,483,4085,-5895,912,105,31,265
7,-216,4085,-5895,901,118,30,313
9,-830,4085,-5895,884,126,22,355
10,-564,3922,-5895,866,126,9,374
10,96,3922,-5895,854,116,-2,352
11,410,3922,-5895,852,100,-10,305
12,149,3922,-5895,858,81,-16,263
13,-215,3700,-5895,870,63,-20,249
13,-26,3700,-5895,880,45,-21,283
12,597,3700,-5895,880,29,-23,363
11,621,3700,-5895,871,14,-23,460
11,-55,3457,-5895,857,4,-21,554
10,-286,3457,-5895,843,-3,-15,642
10,106,3457,-5895,831,-12,-4,729
11,405,3457,-5895,820,-19,4,813
11,275,3233,-5895,807,-22,6,878
11,-83,3233,-5895,796,-22,-1,904
9,-349,3233,-5895,789,-23,-12,875
7,-415,3233,-5895,792,-32,-23,793
7,-284,3051,-5895,808,-44,-31,672
6,-91,3051,-5895,833,-46,-38,528
6,-5,3051,-5895,863,-35,-44,378
6,47,3051,-5895,889,-30,-49,264
5,166,2884,-5895,895,-35,-54,222
5,182,2884,-5895,886,-37,-60,241
5,174,2884,-5895,875,-28,-67,269
6,285,2884,-5895,861,-14,-73,280
6,197,2684,-5895,845,-4,-79,294
7,-95,2684,-5895,824,-3,-87,315
6,-257,2684,-5895,802,-7,-95,313
5,-233,2684,-5895,782,-17,-102,253
6,-207,2452,-5895,768,-31,-106,153
8,-307,2452,-5895,760,-49,-111,53
11,-251,2452,-5895,753,-64,-115,-38
12,137,2452,-5895,747,-72,-113,-127
27,604,2203,-6223,-1324,710,351,699
25,1045,2203,-6223,-1295,869,355,693
22,1077,2203,-6223,-1255,1068,365,712
18,925,2203,-6223,-1213,1251,375,735
14,959,1968,-6223,-1170,1406,382,753
10,903,1968,-6223,-1122,1543,387,763
5,820,1968,-6223,-1068,1680,391,750
1,1003,1968,-6223,-1010,1824,396,721
-2,962,1761,-6223,-951,1971,398,700
-5,468,1761,-6223,-895,2102,397,702
-8,38,1761,-6223,-845,2180,390,731
-8,-30,1761,-6223,-812,2194,380,790
-8,-126,1583,-6223,-806,2160,371,861
-8,-478,1583,-6223,-825,2091,365,927
-8,-425,1583,-6223,-858,2001,364,986
-9,1,1583,-6223,-889,1916,369,1037
-10,-225,1437,-6223,-911,1862,384,1086
-10,-961,1437,-6223,-922,1854,409,1130
-9,-1203,1437,-6223,-924,1883,441,1160
-8,-742,1437,-6223,-919,1933,475,1181
-9,-199,1294,-6223,-911,1984,504,1207
-9,-171,1294,-6223,-897,2017,525,1239
-10,-311,1294,-6223,-878,2022,536,1269
-8,-63,1294,-6223,-854,1997,539,1278
-7,106,1139,-6223,-826,1948,533,1260
-6,-150,1139,-6223,-805,1891,519,1237
-7,-380,1139,-6223,-792,1851,498,1232
-8,-350,1139,-6223,-778,1842,473,1242
-9,-163,976,-6223,-757,1866,448,1250
-11,-48,976,-6223,-734,1913,426,1241
-13,-245,976,-6223,-713,1967,408,1222
-14,-615,976,-6223,-701,2007,393,1201
-14,-887,851,-6223,-697,2014,383,1180
-13,-950,851,-6223,-692,1983,377,1165
-11,-700,851,-6223,-684,1924,375,1156
-9,-204,851,-6223,-673,1853,377,1145
-8,319,796,-6223,-656,1790,383,1132
-8,675,796,-6223,-633,1754,394,1115
-8,740,796,-6223,-606,1749,409,1088
-10,637,796,-6223,-576,1755,426,1049
-13,538,782,-6223,-552,1751,439,1002
-15,172,782,-6223,-541,1743,445,943
-15,-504,782,-6223,-541,1738,446,877
-15,-712,782,-6223,-548,1726,446,818
-14,-256,762,-6223,-559,1699,450,773
-14,76,762,-6223,-578,1661,455,751
-15,-48,762,-6223,-606,1620,460,768
-16,-88,762,-6223,-636,1592,465,825
-17,218,699,-6223,-663,1588,465,906
-17,295,699,-6223,-684,1610,460,999
-17,-91,699,-6223,-699,1649,448,1106
-16,-397,699,-6223,-700,1688,433,1209
-14,-351,637,-6223,-683,1709,415,1270
-11,-89,637,-6223,-651,1698,399,1291
-9,172,637,-6223,-627,1655,383,1301
-8,298,637,-6223,-628,1601,370,1304
-6,222,628,-6223,-637,1561,362,1273
-3,35,628,-6223,-636,1545,358,1199
0,110,628,-6223,-625,1552,354,1113
0,189,628,-6223,-609,1579,349,1040
1,-39,683,-6223,-594,1619,345,986
2,-16,683,-6223,-583,1661,345,951
2,254,683,-6223,-564,1695,348,921
1,60,683,-6223,-505,1708,353,896
0,-477,771,-6223,-417,1699,362,895
0,-717,771,-6223,-349,1675,373,919
-1,-450,771,-6223,-323,1643,386,948
-2,38,771,-6223,-329,1612,399,966
-1,274,851,-6223,-354,1591,411,957
-1,222,851,-6223,-389,1583,424,926
-1,175,851,-6223,-422,1586,435,889
-1,262,851,-6223,-453,1592,438,835
0,350,928,-6223,-480,1598,430,747
-1,272,928,-6223,-500,1600,417,646
-2,-50,928,-6223,-513,1599,401,545
-5,-630,928,-6223,-512,1597,378,442
-8,-832,1006,-6223,-495,1598,349,348
-11,-147,1006,-6223,-461,1601,316,282
-14,649,1006,-6223,-412,1606,283,244
-17,756,1006,-6223,-349,1616,256,226
-19,380,1079,-6223,-279,1635,240,227
-19,129,1079,-6223,-213,1660,233,240
-18,139,1079,-6223,-168,1681,235,295
-16,149,1079,-6223,-162,1688,240,430
-14,76,1146,-6223,-185,1680,248,620
-12,-109,1146,-6223,-211,1663,262,812
-10,-242,1146,-6223,-226,1641,284,982
-6,-276,1146,-6223,-226,1621,310,1120
-2,-489,1223,-6223,-213,1606,336,1227
1,-611,1223,-6223,-193,1596,359,1311
3,-274,1223,-6223,-174,1595,379,1363
3,60,1223,-6223,-168,1597,393,1372
2,26,1335,-6223,-177,1594,401,1356
0,52,1335,-6223,-190,1584,406,1344
0,433,1335,-6223,-197,1567,405,1332
0,611,1335,-6223,-194,1540,398,1301
0,169,1462,-6223,-183,1504,382,1245
0,-257,1462,-6223,-167,1464,361,1170
0,-314,1462,-6223,-153,1431,339,1085
-2,-115,1462,-6223,-145,1406,320,1003
-4,279,1574,-6223,-144,1391,304,947
-5,293,1574,-6223,-143,1390,295,928
-6,-157,1574,-6223,-139,1400,290,934
-5,-342,1574,-6223,-130,1420,288,955
-6,-115,1670,-6223,-119,1445,290,981
-6,88,1670,-6223,-104,1463,297,994
-7,215,1670,-6223,-91,1468,308,983
-7,308,1670,-6223,-80,1466,319,945
-7,259,1783,-6223,-72,1460,327,890
-5,169,1783,-6223,-65,1454,331,845
-4,37,1783,-6223,-54,1448,332,806
-4,-70,1783,-6223,-34,1442,330,752
-5,60,1917,-6223,18,1435,323,689
-6,69,1917,-6223,110,1427,312,638
-6,-227,1917,-6223,196,1418,301,614
-7,-488,1917,-6223,239,1412,290,624
-7,-650,2020,-6223,242,1410,279,657
-8,-437,2020,-6223,222,1415,274,690
-8,328,2020,-6223,191,1419,272,718
-8,824,2020,-6223,161,1415,269,755
-6,463,2060,-6223,135,1402,263,805
-5,-74,2060,-6223,110,1388,255,868
-4,-160,2060,-6223,85,1376,246,932
-4,-231,2060,-6223,59,1369,234,973
-6,-608,2067,-6223,36,1368,219,979
-9,-595,2067,-6223,19,1371,207,959
-11,-15,2067,-6223,8,1374,197,914
-13,194,2067,-6223,1,1374,186,845
-13,349,2107,-6223,3,1372,174,755
-12,806,2107,-6223,16,1371,165,648
-11,571,2107,-6223,44,1372,158,537
-11,-16,2107,-6223,78,1374,153,430
-13,-267,2197,-6223,115,1376,149,332
-14,-461,2197,-6223,152,1372,148,253
-13,-471,2197,-6223,183,1356,152,197
-11,-172,2197,-6223,206,1333,160,167
-9,98,2287,-6223,221,1310,175,171
-8,131,2287,-6223,235,1288,195,207
-7,231,2287,-6223,254,1264,220,263
-6,485,2287,-6223,292,1238,248,327
-5,324,2331,-6223,358,1212,277,394
-4,-103,2331,-6223,426,1194,304,462
-5,-327,2331,-6223,464,1188,325,541
-7,-222,2331,-6223,467,1193,339,643
-10,242,2334,-6223,452,1204,348,764
-13,351,2334,-6223,435,1218,352,900
-15,-210,2334,-6223,415,1232,347,1043
-16,-564,2334,-6223,387,1244,331,1176
-16,-456,2359,-6223,352,1257,307,1277
-15,-274,2359,-6223,320,1280,280,1337
-16,116,2359,-6223,296,1309,253,1363
-16,398,2359,-6223,276,1336,233,1372
-16,41,2438,-6223,257,1350,218,1370
-16,-550,2438,-6223,241,1344,209,1348
-16,-486,2438,-6223,229,1319,205,1287
-17,50,2438,-6223,219,1287,204,1177
-17,49,2537,-6223,210,1244,204,1040
-17,-145,2537,-6223,202,1174,200,901
-15,90,2537,-6223,194,1082,190,772
-12,263,2537,-6223,184,994,179,663
-10,33,2598,-6223,178,937,167,574
-9,-235,2598,-6223,178,911,154,510
-9,-100,2598,-6223,197,902,142,473
-7,520,2598,-6223,261,902,130,459
-5,1013,2587,-6223,370,902,119,456
-2,703,2587,-6223,468,898,107,462
0,-21,2587,-6223,517,903,95,482
1,-358,2587,-6223,526,927,83,520
1,-204,2552,-6223,514,973,72,568
0,-83,2552,-6223,492,1032,65,628
0,-198,2552,-6223,464,1096,60,702
-1,-130,2552,-6223,430,1149,58,780
-2,151,2557,-6223,387,1195,60,854
-4,219,2557,-6223,339,1235,65,919
-7,-64,2557,-6223,293,1261,73,976
-11,-309,2557,-6223,258,1273,85,1044
-14,-150,2623,-6223,243,1277,98,1142
-17,89,2623,-6223,247,1279,113,1271
-18,190,2623,-6223,265,1282,132,1411
-17,584,2623,-6223,295,1274,156,1511
-14,601,2703,-6223,330,1246,185,1533
-10,-600,2703,-6223,359,1197,222,1499
-6,-982,2703,-6223,371,1136,266,1431
-2,-49,2703,-6223,370,1078,308,1332
0,-154,2730,-6223,366,1032,340,1226
0,-733,2730,-6223,366,998,358,1122
0,-294,2730,-6223,369,980,366,1014
-1,577,2730,-6223,381,977,363,914
-2,970,2713,-6223,420,982,354,836
-4,647,2713,-6223,501,992,340,786
-5,59,2713,-6223,606,1002,324,761
-5,-248,2713,-6223,688,1010,304,762
-6,-126,2710,-6223,727,1013,281,786
-8,139,2710,-6223,732,1010,261,810
-7,258,2710,-6223,719,1005,243,807
-5,141,2710,-6223,701,999,227,773
-3,-78,2765,-6223,685,989,213,719
-3,-99,2765,-6223,669,974,199,659
-3,46,2765,-6223,651,959,184,608
-4,-87,2765,-6223,624,943,172,570
-4,-558,2838,-6223,587,928,164,548
-5,-669,2838,-6223,554,907,161,547
-5,-170,2838,-6223,528,872,165,566
-4,397,2838,-6223,507,837,174,597
-3,677,2863,-6223,486,820,184,633
-2,439,2863,-6223,464,823,193,672
-1,-198,2863,-6223,448,838,205,718
0,-400,2863,-6223,452,856,222,780
0,97,2846,-6223,474,874,242,855
1,380,2846,-6223,503,894,262,932
1,-48,2846,-6223,532,916,278,1005
0,-566,2846,-6223,561,935,287,1066
-1,-693,2839,-6223,612,952,291,1109
-4,-259,2839,-6223,704,967,293,1138
-8,283,2839,-6223,805,977,292,1168
-11,182,2839,-6223,868,976,289,1204
-13,178,2879,-6223,886,950,288,1241
-16,370,2879,-6223,872,900,286,1278
-17,-140,2879,-6223,834,851,282,1313
-18,-650,2879,-6223,783,820,277,1340
-17,-498,2927,-6223,733,803,273,1366
-16,-105,2927,-6223,693,794,273,1400
-15,244,2927,-6223,663,790,275,1425
-14,401,2927,-6223,640,787,276,1412
-12,164,2950,-6223,617,784,274,1363
-10,-69,2950,-6223,599,782,270,1297
-6,283,2950,-6223,594,782,265,1220
-2,596,2950,-6223,608,786,262,1135
0,231,2978,-6223,633,790,258,1044
2,-111,2978,-6223,659,788,253,948
2,133,2978,-6223,681,776,248,851
2,488,2978,-6223,696,758,243,771
0,339,3030,-6223,705,739,238,717
-1,-226,3030,-6223,707,726,233,681
-2,-578,3030,-6223,705,720,230,646
-2,-548,3030,-6223,701,719,228,622
-1,-386,3089,-6223,697,720,225,619
0,139,3089,-6223,696,726,223,625
-1,1158,3089,-6223,699,737,223,618
-1,1499,3089,-6223,705,750,225,595
-2,354,3105,-6223,716,763,225,572
-3,-825,3105,-6223,732,772,221,556
-4,-926,3105,-6223,750,774,211,546
-3,-604,3105,-6223,768,766,198,543
-2,-404,3098,-6223,785,749,180,547
-2,-279,3098,-6223,796,736,157,563
-2,-158,3098,-6223,800,737,132,585
-2,57,3098,-6223,791,748,106,600
-3,218,3120,-6223,776,763,83,603
-4,-95,3120,-6223,768,778,65,603
-6,-348,3120,-6223,771,794,52,608
-7,79,3120,-6223,777,810,40,623
-8,579,3172,-6223,780,822,30,644
-9,378,3172,-6223,777,826,21,672
-9,-591,3172,-6223,768,823,19,703
-9,-1370,3172,-6223,755,813,23,726
-7,-825,3227,-6223,746,798,34,740
-5,556,3227,-6223,746,783,51,749
-3,1001,3227,-6223,761,770,73,746
-1,170,3227,-6223,791,758,99,721
0,-244,3257,-6223,823,744,124,677
1,146,3257,-6223,849,727,142,630
2,269,3257,-6223,887,712,158,587
2,271,3257,-6223,950,704,172,547
2,472,3285,-6223,1023,706,179,511
2,359,3285,-6223,1095,712,174,474
2,32,3285,-6223,1163,719,158,434
2,-38,3285,-6223,1201,722,137,392
1,-22,3324,-6223,1186,713,115,357
1,-91,3324,-6223,1127,695,100,337
0,-182,3324,-6223,1046,674,91,329
0,-172,3324,-6223,959,650,86,334
-1,266,3360,-6223,870,625,83,355
-2,836,3360,-6223,786,604,79,384
-1,643,3360,-6223,718,585,72,416
0,-99,3360,-6223,669,572,64,448
0,-445,3395,-6223,637,564,53,479
2,-209,3395,-6223,623,556,43,519
4,41,3395,-6223,631,548,36,568
4,-82,3395,-6223,655,540,33,611
3,-288,3418,-6223,689,530,35,641
1,-361,3418,-6223,727,522,41,664
0,-333,3418,-6223,758,517,50,686
1,-124,3418,-6223,769,513,58,706
2,67,3441,-6223,764,510,64,704
3,-61,3441,-6223,755,508,68,672
2,-269,3441,-6223,749,498,72,614
0,-305,3441,-6223,746,474,75,540
-3,-134,3476,-6223,741,452,79,459
-6,341,3476,-6223,745,449,82,382
-7,577,3476,-6223,761,458,84,317
-7,202,3476,-6223,782,470,83,262
-8,-42,3538,-6223,800,477,80,211
-7,154,3538,-6223,814,477,75,173
-5,554,3538,-6223,821,474,71,162
-3,764,3538,-6223,817,462,68,175
-3,122,3611,-6223,807,434,70,207
-5,-876,3611,-6223,800,406,79,256
-5,-1150,3611,-6223,798,393,92,333
-5,-645,3611,-6223,804,390,101,431
-5,-82,3640,-6223,815,390,99,521
-5,26,3640,-6223,825,391,90,593
-4,-89,3640,-6223,828,389,79,652
-2,-14,3640,-6223,825,388,68,691
0,207,3634,-6223,815,388,59,718
0,157,3634,-6223,797,392,55,746
1,-55,3634,-6223,778,398,55,773
2,101,3634,-6223,762,402,55,801
4,388,3631,-6223,752,401,56,823
5,273,3631,-6223,748,395,60,823
4,-73,3631,-6223,751,387,68,809
2,-293,3631,-6223,758,373,78,790
0,-125,3670,-6223,770,354,90,772
-2,259,3670,-6223,786,333,100,755
-6,186,3670,-6223,802,315,109,735
-9,-129,3670,-6223,812,307,119,706
-10,-25,3726,-6223,820,312,130,668
-9,292,3726,-6223,823,325,138,611
-6,303,3726,-6223,819,338,140,532
-3,47,3726,-6223,810,345,135,450
-2,-108,3766,-6223,801,346,126,383
-2,-199,3766,-6223,799,340,118,328
-2,-249,3766,-6223,804,328,116,289
-2,100,3766,-6223,813,314,116,279
-3,558,3805,-6223,821,298,113,298
-5,253,3805,-6223,824,282,106,340
-7,-555,3805,-6223,824,273,96,396
-9,-655,3805,-6223,827,269,83,458
-11,35,3837,-6223,835,262,68,516
-12,487,3837,-6223,840,250,49,550
-11,326,3837,-6223,838,239,29,567
-8,-41,3837,-6223,825,232,10,572
-4,-282,3862,-6223,799,228,-8,553
-2,-246,3862,-6223,769,226,-23,518
0,-1,3862,-6223,748,219,-31,487
1,212,3862,-6223,730,200,-28,461
2,304,3875,-6223,710,167,-22,450
1,261,3875,-6223,690,131,-15,445
0,203,3875,-6223,674,109,-8,431
0,146,3875,-6223,662,107,4,405
0,-120,3902,-6223,656,122,25,376
-2,-424,3902,-6223,662,149,50,348
-5,-539,3902,-6223,678,179,77,315
-7,-399,3902,-6223,697,209,103,275
-8,58,3958,-6223,717,242,125,238
-8,594,3958,-6223,737,275,142,204
-6,607,3958,-6223,758,305,153,162
-4,65,3958,-6223,773,323,158,117
-3,-95,4003,-6223,774,326,161,86
-2,50,4003,-6223,764,316,164,76
-2,-296,4003,-6223,749,302,169,79
-1,-650,4003,-6223,740,284,178,100
0,-506,4016,-6223,733,263,186,153
1,-182,4016,-6223,721,243,193,218
1,42,4016,-6223,708,224,196,277
0,111,4016,-6223,706,205,198,329
-1,96,4002,-6223,719,185,202,376
-2,225,4002,-6223,740,168,207,420
-3,542,4002,-6223,754,159,211,463
-4,739,4002,-6223,758,161,214,496
-4,417,4001,-6223,759,173,213,516
-4,-252,4001,-6223,765,187,206,525
-2,-462,4001,-6223,775,193,193,524
-1,-64,4001,-6223,781,183,178,519
0,249,4028,-6223,775,144,161,509
2,67,4028,-6223,757,91,141,493
3,-425,4028,-6223,733,58,121,482
3,-642,4028,-6223,709,50,102,480
2,-279,4041,-6223,690,55,86,481
0,-5,4041,-6223,678,62,76,484
0,-230,4041,-6223,674,66,73,494
-3,-336,4041,-6223,679,65,75,519
-5,128,3994,-6223,688,61,82,555
-7,653,3994,-6223,696,57,91,583
-8,576,3994,-6223,700,55,101,586
-7,106,3994,-6223,706,54,108,571
-6,-294,3863,-6223,715,50,115,558
-5,-308,3863,-6223,719,48,120,558
-3,-12,3863,-6223,715,45,121,565
-1,83,3863,-6223,707,40,119,576
0,77,3685,-6223,696,31,113,593
2,183,3685,-6223,683,18,104,618
4,190,3685,-6223,670,2,95,637
6,313,3685,-6223,663,-11,86,647
7,398,3513,-6223,665,-20,76,635
8,21,3513,-6223,675,-24,65,593
9,-171,3513,-6223,685,-24,53,535
9,41,3513,-6223,699,-23,46,478
8,-26,3365,-6223,722,-24,44,424
5,-394,3365,-6223,747,-25,45,373
4,-536,3365,-6223,766,-22,50,326
3,-200,3365,-6223,777,-18,57,284
2,150,3229,-6223,777,-14,66,252
0,78,3229,-6223,763,-7,71,234
-2,-50,3229,-6223,747,-1,70,235
-5,13,3229,-6223,738,5,66,249
-6,152,3064,-6223,729,19,59,264
-7,372,3064,-6223,718,39,51,273
-7,374,3064,-6223,707,54,43,271
-8,11,3064,-6223,703,53,36,263
-9,-223,2865,-6223,707,40,28,244
-8,-194,2865,-6223,718,32,19,212
-6,-113,2865,-6223,737,33,9,190
-5,-34,2865,-6223,758,42,0,181
-4,-116,2659,-6223,777,59,-8,172
-3,-355,2659,-6223,791,75,-14,165
-2,-194,2659,-6223,796,89,-18,167
-1,311,2659,-6223,789,103,-18,177
0,505,2480,-6223,775,115,-13,193
2,467,2480,-6223,757,117,-7,215
4,301,2480,-6223,737,94,-1,241
5,222,2480,-6223,716,31,1,254
6,316,2335,-6223,694,-62,6,255
6,10,2335,-6223,680,-156,14,256
4,-440,2335,-6223,677,-225,21,251
3,-438,2335,-6223,684,-255,27,236
3,-199,2188,-6223,702,-253,35,215
2,23,2188,-6223,720,-231,45,188
3,171,2188,-6223,736,-198,55,157
4,140,2188,-6223,753,-157,60,120
4,66,2032,-6223,769,-106,61,79
3,61,2032,-6223,787,-50,58,35
3,54,2032,-6223,804,3,55,-6
1,70,2032,-6223,814,50,50,-38
0,119,1890,-6223,806,84,44,-57
1,53,1890,-6223,785,98,34,-58
1,-76,1890,-6223,758,92,21,-50
0,-59,1890,-6223,726,73,6,-42
-1,-99,1786,-6223,694,48,-8,-38
-2,-166,1786,-6223,668,25,-25,-31
-4,-69,1786,-6223,652,9,-41,-23
-6,-362,1786,-6223,649,1,-58,-21
-7,-862,1693,-6223,653,-2,-74,-32
-7,-572,1693,-6223,654,-5,-89,-56
-6,172,1693,-6223,651,-9,-100,-89
-4,347,1693,-6223,647,-15,-106,-126
-3,74,1564,-6223,643,-28,-109,-155
-2,20,1564,-6223,638,-46,-110,-165
-3,237,1564,-6223,634,-65,-108,-158
-2,435,1564,-6223,632,-80,-104,-140
-1,386,1422,-6223,633,-88,-101,-114
0,77,1422,-6223,636,-93,-100,-89
1,-246,1422,-6223,639,-103,-100,-74
1,-299,1422,-6223,647,-122,-97,-77
1,-308,1322,-6223,669,-141,-88,-97
1,-648,1322,-6223,718,-145,-76,-117
1,-1043,1322,-6223,788,-132,-62,-113
1,-981,1322,-6223,850,-104,-48,-89
2,-337,1293,-6223,877,-71,-36,-65
2,394,1293,-6223,873,-37,-24,-50
2,703,1293,-6223,855,-4,-10,-48
2,483,1293,-6223,825,15,4,-58
3,30,1283,-6223,784,3,17,-71
4,98,1283,-6223,741,-29,25,-84
4,716,1283,-6223,703,-52,29,-103
4,1057,1283,-6223,671,-53,29,-131
4,810,1237,-6223,645,-43,25,-156
4,256,1237,-6223,626,-31,20,-170
5,-146,1237,-6223,612,-23,15,-177
5,-149,1237,-6223,603,-16,10,-186
8,-24,1173,-6223,605,-2,8,-192
11,-15,1173,-6223,623,21,11,-188
12,-201,1173,-6223,657,48,16,-183
13,-444,1173,-6223,701,59,22,-183
12,-348,1142,-6223,746,42,26,-187
11,-72,1142,-6223,783,16,30,-189
9,-59,1142,-6223,811,0,35,-181
7,-73,1142,-6223,831,-6,39,-153
7,171,1180,-6223,845,-7,42,-110
6,425,1180,-6223,851,0,44,-80
5,466,1180,-6223,850,3,44,-71
4,328,1180,-6223,842,-7,41,-71
2,211,1259,-6223,830,-24,38,-69
0,382,1259,-6223,814,-24,35,-48
-1,517,1259,-6223,794,-8,30,-3
-1,41,1259,-6223,772,8,21,52
-1,-514,1347,-6223,751,20,13,108
0,-400,1347,-6223,729,23,7,164
1,-303,1347,-6223,707,17,4,222
3,-746,1347,-6223,695,5,2,264
4,-964,1426,-6223,716,-6,1,249
4,-772,1426,-6223,790,-17,1,176
4,-447,1426,-6223,881,-22,4,90
3,119,1426,-6223,934,-20,9,21
2,656,1490,-6223,937,-15,12,-39
2,615,1490,-6223,912,-11,7,-104
1,20,1490,-6223,877,-9,0,-179
0,-272,1490,-6223,843,-11,-8,-261
-2,38,1560,-6223,813,-15,-16,-339
-4,223,1560,-6223,782,-23,-26,-396
-4,132,1560,-6223,750,-38,-38,-428
-3,59,1560,-6223,726,-53,-52,-436
-1,70,1645,-6223,712,-60,-67,-418
0,176,1645,-6223,713,-56,-84,-380
0,155,1645,-6223,730,-46,-101,-347
0,-8,1645,-6223,763,-48,-118,-342
3,-216,1758,-6223,810,-73,-134,-373
5,-324,1758,-6223,861,-100,-146,-435
6,265,1758,-6223,909,-113,-154,-512
7,1000,1758,-6223,945,-115,-154,-591
6,517,1889,-6223,962,-115,-146,-675
5,-534,1889,-6223,958,-112,-134,-748
4,-787,1889,-6223,937,-105,-119,-781
3,-439,1889,-6223,916,-94,-104,-767
3,-134,2037,-6223,920,-78,-86,-716
4,-31,2037,-6223,938,-59,-63,-640
6,26,2037,-6223,942,-41,-36,-559
7,130,2037,-6223,928,-26,-12,-489
9,72,2215,-6223,905,-15,4,-429
10,-93,2215,-6223,883,-4,13,-385
10,5,2215,-6223,862,9,17,-365
9,352,2215,-6223,842,24,19,-362
26,755,2409,-6879,-1347,698,348,704
22,1508,2409,-6879,-1393,817,343,712
16,1751,2409,-6879,-1473,957,340,751
9,1607,2409,-6879,-1563,1081,337,799
5,1381,2605,-6879,-1648,1180,334,858
2,1035,2605,-6879,-1718,1268,331,928
-1,976,2605,-6879,-1771,1363,332,983
-4,1198,2605,-6879,-1809,1473,339,1010
-6,1096,2789,-6879,-1833,1590,349,1026
-7,715,2789,-6879,-1839,1691,361,1053
-7,206,2789,-6879,-1825,1758,374,1096
-8,-300,2789,-6879,-1800,1787,389,1162
-9,-430,2984,-6879,-1773,1776,404,1246
-11,-266,2984,-6879,-1753,1727,420,1307
-13,-182,2984,-6879,-1740,1655,436,1302
-14,-102,2984,-6879,-1728,1585,453,1251
-14,95,3206,-6879,-1714,1536,466,1205
-12,20,3206,-6879,-1700,1520,472,1190
-11,-315,3206,-6879,-1688,1540,469,1202
-10,-480,3206,-6879,-1673,1580,462,1229
-10,-488,3437,-6879,-1652,1622,454,1271
-11,-662,3437,-6879,-1626,1646,446,1322
-11,-1111,3437,-6879,-1602,1638,439,1369
-11,-1449,3437,-6879,-1581,1601,431,1414
-12,-1259,3678,-6879,-1563,1544,422,1457
-14,-612,3678,-6879,-1545,1485,412,1474
-17,-176,3678,-6879,-1521,1445,403,1456
-19,-366,3678,-6879,-1488,1435,395,1428
-21,-430,3919,-6879,-1451,1454,388,1407
-22,-60,3919,-6879,-1416,1494,383,1385
-22,71,3919,-6879,-1386,1540,378,1349
-22,-92,3919,-6879,-1360,1575,373,1301
-21,-289,4150,-6879,-1338,1587,366,1251
-20,-498,4150,-6879,-1323,1564,359,1203
-19,-544,4150,-6879,-1316,1507,355,1167
-18,-325,4150,-6879,-1313,1444,351,1143
-18,107,4341,-6879,-1307,1397,345,1114
-18,484,4341,-6879,-1295,1375,335,1065
-17,299,4341,-6879,-1273,1381,322,993
-17,-193,4341,-6879,-1246,1408,307,900
-16,-328,4505,-6879,-1224,1443,292,810
-14,-400,4505,-6879,-1206,1472,280,753
-13,-813,4505,-6879,-1185,1483,269,734
-14,-981,4505,-6879,-1161,1473,259,740
-14,-633,4705,-6879,-1132,1442,252,754
-14,-258,4705,-6879,-1098,1405,251,774
-13,37,4705,-6879,-1058,1372,257,798
-11,226,4705,-6879,-980,1346,269,811
-10,126,4953,-6879,-852,1334,286,799
-11,24,4953,-6879,-727,1345,306,774
-12,140,4953,-6879,-654,1377,324,745
-12,109,4953,-6879,-636,1419,335,710
-11,0,5223,-6879,-657,1457,341,682
-9,277,5223,-6879,-702,1477,343,675
-7,634,5223,-6879,-763,1481,343,693
-5,432,5223,-6879,-837,1479,342,739
-3,-144,5460,-6879,-914,1478,341,817
-2,-340,5460,-6879,-982,1486,342,920
0,-12,5460,-6879,-1030,1504,341,1025
1,346,5460,-6879,-1057,1528,338,1103
3,481,5677,-6879,-1067,1551,336,1152
3,448,5677,-6879,-1066,1569,336,1190
2,411,5677,-6879,-1055,1577,339,1208
0,228,5677,-6879,-1032,1567,341,1204
0,-326,5909,-6879,-994,1536,340,1209
-1,-681,5909,-6879,-948,1483,334,1242
-2,-361,5909,-6879,-907,1422,326,1300
-3,259,5909,-6879,-877,1381,321,1373
-5,673,6149,-6879,-854,1373,318,1421
-7,516,6149,-6879,-831,1393,318,1418
-9,-82,6149,-6879,-805,1433,316,1378
-12,-490,6149,-6879,-776,1479,312,1310
-14,-550,6399,-6879,-746,1519,307,1230
-16,-371,6399,-6879,-713,1551,300,1161
-17,102,6399,-6879,-673,1571,295,1092
-17,495,6399,-6879,-633,1579,293,996
-15,447,6630,-6879,-602,1578,295,874
-14,223,6630,-6879,-581,1571,301,755
-13,169,6630,-6879,-569,1562,307,664
-10,422,6630,-6879,-566,1556,312,616
-7,852,6858,-6879,-569,1552,312,615
-5,914,6858,-6879,-572,1549,307,651
-4,144,6858,-6879,-571,1543,294,706
-5,-1006,6858,-6879,-566,1533,280,754
-5,-1381,7099,-6879,-555,1518,268,785
-4,-749,7099,-6879,-537,1503,259,802
-5,-63,7099,-6879,-517,1488,253,812
-5,161,7099,-6879,-501,1475,248,821
-5,162,7368,-6879,-491,1468,245,838
-4,67,7368,-6879,-483,1469,244,864
-4,-192,7368,-6879,-472,1475,242,870
-5,-339,7368,-6879,-459,1481,240,846
-7,-237,7706,-6879,-442,1488,238,811
-9,-116,7706,-6879,-417,1490,237,770
-11,144,7706,-6879,-382,1484,234,714
-14,397,7706,-6879,-343,1468,229,646
-16,182,8071,-6879,-309,1443,226,584
-18,-319,8071,-6879,-283,1418,224,537
-18,-597,8071,-6879,-260,1400,225,501
-16,-346,8071,-6879,-238,1394,228,476
-15,1,8420,-6879,-219,1394,234,473
-15,-60,8420,-6879,-201,1388,237,495
-15,155,8420,-6879,-191,1371,237,526
-14,723,8420,-6879,-194,1348,236,553
-14,541,8709,-6879,-205,1323,236,588
-13,-285,8709,-6879,-221,1302,240,650
-12,-680,8709,-6879,-239,1285,244,727
-11,-457,8709,-6879,-259,1271,245,784
-11,-76,8965,-6879,-278,1255,244,804
-13,246,8965,-6879,-301,1239,243,819
-14,276,8965,-6879,-331,1224,242,865
-14,-70,8965,-6879,-361,1214,239,927
-11,-226,9252,-6879,-379,1208,237,960
-9,147,9252,-6879,-379,1208,238,944
-9,448,9252,-6879,-358,1211,241,908
-10,339,9252,-6879,-320,1216,244,881
-10,190,9550,-6879,-277,1223,244,857
-10,241,9550,-6879,-242,1231,244,821
-10,378,9550,-6879,-216,1236,247,778
-9,294,9550,-6879,-193,1238,253,739
-9,-121,9829,-6879,-173,1240,261,699
-9,-489,9829,-6879,-160,1241,269,654
-9,-167,9829,-6879,-152,1242,278,620
-10,496,9829,-6879,-137,1243,288,620
-10,345,10037,-6879,-99,1248,294,653
-10,-346,10037,-6879,-33,1255,298,702
-9,-471,10037,-6879,32,1259,298,738
-8,-75,10037,-6879,58,1259,293,743
-8,181,10203,-6879,42,1260,286,727
-9,147,10203,-6879,9,1269,281,690
-12,37,10203,-6879,-22,1283,281,625
-15,-104,10203,-6879,-48,1294,288,556
-17,-161,10375,-6879,-73,1302,299,523
-17,83,10375,-6879,-95,1308,308,528
-16,423,10375,-6879,-106,1314,314,547
-15,602,10375,-6879,-103,1321,317,569
-14,538,10530,-6879,-86,1326,316,604
-15,266,10530,-6879,-57,1328,312,651
-17,33,10530,-6879,-23,1330,303,686
-17,-58,10530,-6879,9,1326,291,709
-17,-53,10631,-6879,38,1311,276,739
-15,-232,10631,-6879,64,1289,260,773
-15,-616,10631,-6879,82,1274,243,798
-14,-811,10631,-6879,87,1271,229,811
-14,-624,10639,-6879,77,1277,219,807
-13,-244,10639,-6879,60,1286,212,781
-12,-161,10639,-6879,39,1291,207,727
-12,-232,10639,-6879,20,1293,201,655
-14,-105,10628,-6879,11,1301,197,588
-15,0,10628,-6879,20,1309,195,548
-17,-37,10628,-6879,44,1312,193,526
-19,-234,10628,-6879,79,1310,191,501
-21,-256,10651,-6879,123,1312,190,488
-22,205,10651,-6879,166,1322,190,501
-23,662,10651,-6879,199,1331,193,536
-22,659,10651,-6879,221,1335,198,586
-19,257,10660,-6879,230,1337,208,639
-17,-230,10660,-6879,235,1333,227,684
-15,-453,10660,-6879,240,1326,247,725
-14,-396,10660,-6879,248,1321,263,773
-13,-259,10593,-6879,263,1320,273,812
-13,-149,10593,-6879,283,1314,272,811
-15,-227,10593,-6879,293,1303,264,773
-16,-428,10593,-6879,293,1294,255,715
-16,-336,10421,-6879,285,1287,243,637
-15,64,10421,-6879,274,1284,228,527
-15,273,10421,-6879,258,1292,213,385
-13,251,10421,-6879,241,1303,200,237
-10,380,10252,-6879,231,1305,192,109
-8,641,10252,-6879,227,1290,193,7
-6,741,10252,-6879,228,1259,200,-59
-4,509,10252,-6879,236,1217,209,-84
-3,213,10137,-6879,252,1169,220,-71
-4,76,10137,-6879,275,1123,232,-49
-5,-16,10137,-6879,301,1080,239,-37
-7,-50,10137,-6879,323,1042,240,-27
-10,-38,10055,-6879,333,1018,234,-8
-12,100,10055,-6879,339,1016,220,21
-12,144,10055,-6879,347,1030,194,58
-13,-235,10055,-6879,359,1052,158,103
-13,-657,9976,-6879,372,1069,127,167
-13,-775,9976,-6879,377,1063,122,239
-13,-453,9976,-6879,374,1040,137,274
-13,-47,9976,-6879,375,1022,155,272
-13,-173,9874,-6879,393,1015,172,291
-12,-373,9874,-6879,417,1013,192,354
-12,-36,9874,-6879,434,1006,209,440
-11,392,9874,-6879,443,981,214,535
-8,292,9826,-6879,446,931,209,631
-2,-127,9826,-6879,444,877,206,719
6,-190,9826,-6879,436,836,207,786
15,109,9826,-6879,417,818,198,818
24,264,9835,-6879,392,851,170,832
31,184,9835,-6879,371,937,136,835
36,32,9835,-6879,351,1009,128,802
39,-132,9835,-6879,328,999,152,751
39,-311,9897,-6879,312,917,187,719
37,-332,9897,-6879,308,841,215,713
34,35,9897,-6879,311,812,242,728
31,302,9897,-6879,318,804,267,754
27,-49,9978,-6879,331,806,285,774
24,-662,9978,-6879,346,821,298,783
23,-847,9978,-6879,363,845,312,800
22,-225,9978,-6879,384,870,325,829
24,668,10041,-6879,406,890,328,842
26,1078,10041,-6879,426,905,318,833
28,792,10041,-6879,442,928,307,809
31,40,10041,-6879,461,964,308,766
32,-233,10129,-6879,494,1001,312,704
33,282,10129,-6879,531,1029,316,632
32,450,10129,-6879,561,1052,331,551
32,52,10129,-6879,585,1070,359,478
31,-50,10239,-6879,609,1081,387,448
30,12,10239,-6879,635,1086,405,462
27,-255,10239,-6879,663,1094,420,506
26,-601,10239,-6879,685,1099,436,564
26,-653,10388,-6879,703,1090,449,608
26,-472,10388,-6879,722,1059,453,615
27,-218,10388,-6879,739,1015,443,573
26,-10,10388,-6879,750,988,417,515
26,86,10535,-6879,737,996,378,472
25,83,10535,-6879,694,1029,336,439
26,69,10535,-6879,658,1058,314,418
27,39,10535,-6879,654,1057,323,399
29,-107,10651,-6879,660,1038,343,359
31,-72,10651,-6879,664,1023,355,288
34,291,10651,-6879,667,1016,358,198
37,552,10651,-6879,668,1011,352,109
40,460,10763,-6879,673,994,341,39
42,205,10763,-6879,685,966,327,-14
43,-38,10763,-6879,699,944,313,-69
43,-264,10763,-6879,712,929,299,-127
43,-232,10868,-6879,730,908,287,-164
44,-11,10868,-6879,746,877,268,-163
44,-61,10868,-6879,753,855,234,-129
44,-195,10868,-6879,752,869,188,-70
42,-43,10988,-6879,746,895,150,4
40,53,10988,-6879,734,875,141,89
38,-361,10988,-6879,707,807,155,159
37,-581,10988,-6879,672,763,175,192
35,-100,11078,-6879,647,776,198,213
33,178,11078,-6879,624,801,224,250
30,137,11078,-6879,594,822,243,270
26,238,11078,-6879,578,838,241,238
24,222,11098,-6879,597,827,226,182
22,11,11098,-6879,631,804,221,143
21,-167,11098,-6879,667,817,232,123
22,-257,11098,-6879,700,855,254,122
23,-169,11024,-6879,729,882,287,151
25,60,11024,-6879,752,895,322,199
25,155,11024,-6879,772,899,346,252
25,166,11024,-6879,803,885,349,290
23,212,10841,-6879,828,852,337,300
22,165,10841,-6879,828,824,333,305
20,6,10841,-6879,819,803,339,323
19,-235,10841,-6879,816,775,339,334
19,-423,10587,-6879,815,777,335,321
18,-364,10587,-6879,810,841,333,311
19,-127,10587,-6879,798,920,331,312
19,-27,10587,-6879,773,958,321,300
20,-28,10282,-6879,747,971,304,247
19,159,10282,-6879,751,1005,287,146
18,412,10282,-6879,797,1058,265,20
17,729,10282,-6879,830,1098,227,-87
18,958,9941,-6879,817,1106,175,-159
19,719,9941,-6879,796,1084,139,-182
18,324,9941,-6879,800,1052,143,-153
17,135,9941,-6879,805,1043,168,-110
16,-132,9547,-6879,791,1087,194,-57
15,-547,9547,-6879,779,1154,224,26
13,-537,9547,-6879,786,1193,245,111
9,-31,9547,-6879,810,1224,255,163
5,293,9059,-6879,839,1257,284,218
1,138,9059,-6879,860,1255,339,312
-2,-173,9059,-6879,875,1223,386,414
-5,-297,9059,-6879,895,1167,403,491
-9,-86,8492,-6879,923,1083,396,548
-11,68,8492,-6879,951,1010,375,593
-12,-393,8492,-6879,967,1000,349,615
-12,-846,8492,-6879,971,1033,312,605
-12,-590,7863,-6879,973,1058,262,578
-12,-238,7863,-6879,976,1039,216,560
-12,-25,7863,-6879,931,999,173,531
-12,-20,7863,-6879,792,1004,116,459
-12,-451,7209,-6879,606,1073,48,372
-12,-532,7209,-6879,495,1165,19,314
-13,-62,7209,-6879,530,1247,44,264
-15,245,7209,-6879,646,1326,66,194
-18,463,6536,-6879,746,1356,53,131
-22,837,6536,-6879,786,1255,9,78
-25,875,6536,-6879,771,1072,-62,3
-25,520,6536,-6879,730,961,-147,-88
-23,305,5831,-6879,674,953,-198,-167
-21,65,5831,-6879,651,953,-182,-219
-20,-295,5831,-6879,700,928,-108,-256
-21,-247,5831,-6879,747,890,-12,-310
-23,109,5118,-6879,734,843,60,-377
-24,166,5118,-6879,733,806,100,-357
-25,-269,5118,-6879,793,778,121,-193
-25,-969,5118,-6879,869,728,131,30
-25,-1237,4404,-6879,927,658,127,223
-24,-683,4404,-6879,973,606,111,343
-23,26,4404,-6879,1007,619,100,387
-23,281,4404,-6879,1026,691,106,382
-24,231,3734,-6879,1034,766,110,359
-25,247,3734,-6879,1026,847,85,329
-25,333,3734,-6879,990,915,46,297
-25,391,3734,-6879,913,942,32,269
-24,639,3135,-6879,831,971,45,245
-23,867,3135,-6879,775,1012,61,223
-22,462,3135,-6879,700,1050,79,187
-21,-373,3135,-6879,594,1084,107,117
-20,-994,2607,-6879,544,1101,117,15
-20,-1045,2607,-6879,607,1093,69,-77
-20,-508,2607,-6879,729,1081,-21,-102
-19,10,2607,-6879,778,1069,-99,-71
-17,97,2138,-6879,716,979,-126,-69
-17,-22,2138,-6879,689,807,-110,-136
-18,-7,2138,-6879,746,693,-80,-252
-17,164,2138,-6879,690,698,-24,-436
-17,401,1694,-6879,524,737,72,-693
-16,694,1694,-6879,501,726,186,-870
-16,640,1694,-6879,642,677,283,-826
-16,220,1694,-6879,821,627,347,-668
-17,7,1284,-6879,1009,605,386,-517
-16,59,1284,-6879,1138,618,392,-367
-15,39,1284,-6879,1129,666,351,-204
-13,-97,1284,-6879,1030,750,296,-29
-10,-390,882,-6879,914,776,264,140
-8,-742,882,-6879,858,728,262,281
-7,-643,882,-6879,911,742,306,403
-6,-145,882,-6879,1027,820,375,521
-5,333,439,-6879,1152,866,421,631
-5,457,439,-6879,1244,887,425,721
-5,-73,439,-6879,1282,948,398,790
-5,-653,439,-6879,1280,1033,358,829
-5,-306,-69,-6879,1254,1082,312,804
-5,485,-69,-6879,1171,1029,256,672
-7,765,-69,-6879,1040,859,214,450
-8,671,-69,-6879,968,709,216,255
-10,532,-647,-6879,974,659,231,188
-12,331,-647,-6879,996,611,215,194
-12,-36,-647,-6879,1031,508,147,148
-11,-250,-647,-6879,1066,431,49,18
-11,-97,-1272,-6879,1089,446,-4,-127
-11,-92,-1272,-6879,1117,475,19,-179
-13,-380,-1272,-6879,1112,464,90,-91
-13,-549,-1272,-6879,1027,492,156,47
-11,-498,-1951,-6879,900,606,176,137
-10,-352,-1951,-6879,808,775,140,159
-9,-182,-1951,-6879,739,959,79,108
-9,-206,-1951,-6879,694,1103,38,4
-9,-340,-2664,-6879,738,1133,40,-67
-10,-244,-2664,-6879,865,1044,70,-78
-10,42,-2664,-6879,1019,893,75,-88
-9,146,-2664,-6879,1148,760,15,-114
-8,0,-3334,-6879,1208,702,-85,-141
-7,127,-3334,-6879,1187,704,-165,-174
-6,454,-3334,-6879,1139,732,-187,-202
-6,336,-3334,-6879,1135,742,-154,-221
-6,-178,-3903,-6879,1158,710,-108,-255
-5,-463,-3903,-6879,1116,694,-91,-331
-2,-110,-3903,-6879,1002,735,-80,-474
0,581,-3903,-6879,934,786,-33,-688
3,1131,-4369,-6879,1018,828,48,-902
4,1302,-4369,-6879,1179,840,153,-960
4,943,-4369,-6879,1245,757,251,-811
3,270,-4369,-6879,1207,600,294,-612
3,-255,-4767,-6879,1125,488,279,-468
2,-427,-4767,-6879,1038,484,245,-355
1,-416,-4767,-6879,1067,553,222,-231
0,-336,-4767,-6879,1219,629,208,-63
-1,-193,-5076,-6879,1343,675,191,137
-3,-343,-5076,-6879,1380,694,176,336
-5,-491,-5076,-6879,1377,717,154,470
-5,-200,-5076,-6879,1324,802,142,476
-6,-41,-5258,-6879,1189,915,181,367
-6,-380,-5258,-6879,1104,965,252,203
-7,-693,-5258,-6879,1194,953,288,18
-8,-204,-5258,-6879,1369,892,254,-178
-8,566,-5319,-6879,1528,808,177,-359
-8,594,-5319,-6879,1653,744,104,-498
-7,109,-5319,-6879,1735,704,66,-578
-7,-148,-5319,-6879,1774,679,71,-549
-8,263,-5304,-6879,1755,644,100,-384
-7,771,-5304,-6879,1654,607,119,-155
-6,653,-5304,-6879,1486,552,133,43
-5,240,-5304,-6879,1335,514,182,199
-5,-60,-5245,-6879,1274,564,250,320
-5,-128,-5245,-6879,1267,651,288,356
-4,49,-5245,-6879,1271,773,283,280
-3,244,-5245,-6879,1255,910,259,138
-4,267,-5121,-6879,1129,951,257,-9
-5,27,-5121,-6879,954,915,292,-104
-8,-330,-5121,-6879,857,880,339,-120
-8,-482,-5121,-6879,780,859,360,-84
-8,-460,-4924,-6879,709,870,327,-31
-7,-247,-4924,-6879,767,943,244,35
-6,34,-4924,-6879,982,988,160,138
-5,-61,-4924,-6879,1274,929,134,264
-5,-235,-4661,-6879,1520,846,161,404
-6,-150,-4661,-6879,1643,804,179,560
-6,-45,-4661,-6879,1669,803,184,704
-6,-171,-4661,-6879,1670,777,194,806
-6,-406,-4352,-6879,1673,720,193,852
-5,-287,-4352,-6879,1648,700,197,853
-5,66,-4352,-6879,1584,667,223,817
-4,100,-4352,-6879,1498,568,254,720
-5,-160,-3984,-6879,1377,495,271,558
-5,-204,-3984,-6879,1245,495,273,359
-5,132,-3984,-6879,1175,499,245,152
-4,329,-3984,-6879,1183,543,180,-12
-2,-11,-3547,-6879,1230,652,129,-81
0,-216,-3547,-6879,1269,684,138,-59
0,147,-3547,-6879,1262,580,166,-13
2,424,-3547,-6879,1232,402,153,-6
3,219,-3026,-6879,1218,213,96,-55
3,83,-3026,-6879,1222,105,15,-142
1,420,-3026,-6879,1219,130,-40,-187
0,480,-3026,-6879,1141,208,-31,-155
-2,-67,-2426,-6879,1048,279,25,-97
-3,-471,-2426,-6879,1049,363,99,-50
-3,-309,-2426,-6879,1113,448,156,-30
-2,104,-2426,-6879,1145,482,190,-36
-1,356,-1779,-6879,1090,441,226,-58
0,340,-1779,-6879,1055,409,272,-83
0,89,-1779,-6879,1061,423,306,-133
1,13,-1779,-6879,1026,468,300,-250
2,361,-1124,-6879,1044,554,262,-353
1,518,-1124,-6879,1207,620,250,-306
0,299,-1124,-6879,1412,583,288,-104
0,129,-1124,-6879,1522,506,321,179
-2,-116,-495,-6879,1535,550,307,488
-4,-512,-495,-6879,1522,692,276,766
-5,-611,-495,-6879,1472,766,282,964
-6,-462,-495,-6879,1343,770,327,1106
-6,-347,112,-6879,1220,760,363,1240
-5,-159,112,-6879,1227,717,360,1324
-3,-17,112,-6879,1288,656,318,1308
0,-80,112,-6879,1311,630,269,1239
3,-195,678,-6879,1361,626,244,1166
4,-333,678,-6879,1441,569,249,1096
5,-519,678,-6879,1439,473,269,1012
5,-295,678,-6879,1379,390,278,867
7,500,1173,-6879,1379,308,260,670
10,998,1173,-6879,1404,236,214,482
12,785,1173,-6879,1323,194,155,310
14,458,1173,-6879,1117,145,100,141
16,358,1562,-6879,942,142,60,5
16,295,1562,-6879,940,276,60,-66
14,-207,1562,-6879,1106,433,76,-150
13,-973,1562,-6879,1381,520,57,-281
12,-860,1840,-6879,1632,589,32,-322
13,229,1840,-6879,1751,637,51,-192
14,1079,1840,-6879,1771,643,99,4
16,909,1840,-6879,1761,665,138,162
17,131,2041,-6879,1752,748,170,273
17,-439,2041,-6879,1736,801,232,387
16,-665,2041,-6879,1654,744,329,519
16,-672,2041,-6879,1490,625,420,617
17,-231,2182,-6879,1377,518,468,668
19,357,2182,-6879,1383,473,478,739
18,366,2182,-6879,1377,460,463,868
17,149,2182,-6879,1285,455,403,1016
14,403,2278,-6879,1205,482,323,1143
11,632,2278,-6879,1194,499,289,1229
9,44,2278,-6879,1166,493,299,1260
9,-1039,2278,-6879,1155,513,314,1285
8,-1569,2328,-6879,1268,522,310,1330
6,-1251,2328,-6879,1440,450,284,1350
4,-630,2328,-6879,1564,341,256,1313
4,165,2328,-6879,1614,331,236,1233
5,1001,2341,-6879,1589,398,226,1132
6,1531,2341,-6879,1502,414,226,1025
9,1696,2341,-6879,1403,390,225,931
13,915,2341,-6879,1338,409,202,860
16,-514,2339,-6879,1270,459,128,756
17,-1003,2339,-6879,1149,469,2,571
17,-377,2339,-6879,1007,445,-108,373
18,271,2339,-6879,912,397,-154,221
18,373,2329,-6879,898,334,-141,99
19,130,2329,-6879,951,320,-75,56
20,-197,2329,-6879,1041,292,21,132
20,-534,2329,-6879,1171,178,90,268
20,-142,2321,-6879,1333,100,119,418
18,927,2321,-6879,1450,145,131,560
17,913,2321,-6879,1481,168,134,661
16,-191,2321,-6879,1472,70,129,706
15,-582,2337,-6879,1420,16,109,689
14,-88,2337,-6879,1268,113,81,605
14,406,2337,-6879,1101,263,67,492
15,635,2337,-6879,1091,404,57,396
15,472,2405,-6879,1232,539,18,327
15,-199,2405,-6879,1395,635,-28,296
15,-862,2405,-6879,1504,643,-50,300
16,-839,2405,-6879,1555,576,-53,337
18,-233,2533,-6879,1594,525,-42,456
18,309,2533,-6879,1683,553,5,668
17,211,2533,-6879,1797,617,88,911
17,-219,2533,-6879,1865,664,162,1111
16,-273,2678,-6879,1898,665,219,1236
17,-194,2678,-6879,1878,585,284,1289
17,-227,2678,-6879,1723,458,328,1264
17,-133,2678,-6879,1519,344,321,1135
16,-104,2785,-6879,1396,258,270,893
17,-260,2785,-6879,1320,157,214,580
17,-102,2785,-6879,1293,45,162,273
17,362,2785,-6879,1367,44,120,49
15,395,2837,-6879,1502,165,144,-41
15,163,2837,-6879,1636,285,239,-9
15,176,2837,-6879,1732,350,333,91
16,-177,2837,-6879,1745,375,390,234
26,681,2835,-6879,-1316,713,359,727
24,1553,2835,-6879,-1264,885,392,823
21,1902,2835,-6879,-1218,1145,448,1000
17,1127,2835,-6879,-1228,1455,504,1149
13,376,2801,-6879,-1316,1760,561,1214
12,425,2801,-6879,-1457,2022,627,1248
11,732,2801,-6879,-1528,2232,678,1302
10,752,2801,-6879,-1461,2393,694,1381
10,399,2741,-6879,-1365,2541,686,1458
10,39,2741,-6879,-1344,2710,669,1495
11,83,2741,-6879,-1349,2881,651,1489
11,399,2741,-6879,-1331,2973,634,1466
10,403,2669,-6879,-1292,2928,628,1427
10,-41,2669,-6879,-1197,2794,619,1375
10,-599,2669,-6879,-1065,2662,570,1346
10,-864,2669,-6879,-963,2590,482,1369
10,-459,2598,-6879,-933,2554,428,1425
10,-75,2598,-6879,-1002,2501,451,1484
10,-527,2598,-6879,-1130,2460,516,1537
9,-975,2598,-6879,-1216,2378,577,1574
9,-740,2523,-6879,-1221,2180,609,1582
9,-359,2523,-6879,-1222,2040,608,1558
11,-218,2523,-6879,-1258,2076,608,1558
14,-181,2523,-6879,-1289,2169,639,1613
17,-146,2444,-6879,-1312,2225,701,1684
19,-114,2444,-6879,-1309,2225,761,1735
20,-93,2444,-6879,-1226,2187,795,1721
22,-20,2444,-6879,-1085,2161,801,1624
24,230,2367,-6879,-955,2189,786,1511
25,187,2367,-6879,-869,2293,753,1436
27,-213,2367,-6879,-832,2432,714,1385
27,-234,2367,-6879,-837,2531,691,1335
26,-31,2322,-6879,-887,2549,674,1294
25,-167,2322,-6879,-969,2496,654,1303
22,-393,2322,-6879,-1028,2401,655,1393
20,-249,2322,-6879,-1030,2289,679,1507
19,-11,2329,-6879,-997,2187,701,1588
18,-25,2329,-6879,-955,2129,711,1626
17,45,2329,-6879,-908,2128,713,1609
17,300,2329,-6879,-854,2175,713,1574
17,211,2377,-6879,-804,2250,715,1558
17,-366,2377,-6879,-769,2314,713,1537
17,-871,2377,-6879,-753,2342,703,1469
18,-828,2377,-6879,-752,2334,681,1355
22,-334,2451,-6879,-764,2309,643,1231
26,-24,2451,-6879,-770,2296,590,1103
29,-211,2451,-6879,-757,2276,543,970
31,-278,2451,-6879,-741,2218,529,854
32,302,2535,-6879,-736,2170,548,794
33,1199,2535,-6879,-728,2187,584,824
33,1420,2535,-6879,-692,2235,623,942
32,426,2535,-6879,-640,2271,652,1102
30,-803,2621,-6879,-605,2285,670,1267
28,-1119,2621,-6879,-564,2280,680,1423
27,-589,2621,-6879,-493,2260,686,1552
26,90,2621,-6879,-420,2233,688,1639
24,394,2674,-6879,-387,2205,687,1688
22,491,2674,-6879,-424,2184,681,1716
20,789,2674,-6879,-495,2178,676,1738
19,1020,2674,-6879,-516,2187,667,1729
19,583,2658,-6879,-478,2218,656,1664
19,-388,2658,-6879,-427,2264,658,1568
21,-1009,2658,-6879,-377,2288,668,1491
24,-934,2658,-6879,-339,2278,669,1431
26,-605,2588,-6879,-318,2250,659,1364
27,-413,2588,-6879,-314,2214,649,1294
29,146,2588,-6879,-345,2179,641,1213
30,1132,2588,-6879,-423,2151,626,1095
30,1086,2504,-6879,-517,2145,606,959
28,42,2504,-6879,-584,2156,600,853
27,-354,2504,-6879,-627,2151,611,788
28,160,2504,-6879,-652,2109,621,738
29,470,2437,-6879,-619,2063,631,705
28,34,2437,-6879,-524,2054,652,731
26,-472,2437,-6879,-422,2053,676,833
25,-441,2437,-6879,-338,2041,691,995
25,-123,2366,-6879,-271,2029,698,1202
24,-209,2366,-6879,-226,2023,698,1417
23,-667,2366,-6879,-200,2023,688,1572
21,-550,2366,-6879,-188,2033,668,1665
19,102,2260,-6879,-190,2047,639,1731
18,394,2260,-6879,-207,2052,601,1784
18,246,2260,-6879,-239,2041,560,1836
20,63,2260,-6879,-284,2009,519,1891
20,269,2114,-6879,-330,1954,481,1936
20,514,2114,-6879,-366,1869,450,1933
20,85,2114,-6879,-390,1752,428,1845
19,-628,2114,-6879,-405,1636,412,1700
19,-901,1945,-6879,-406,1567,401,1573
19,-568,1945,-6879,-394,1552,396,1486
19,-113,1945,-6879,-374,1570,393,1407
18,192,1945,-6879,-360,1602,393,1317
18,596,1782,-6879,-356,1635,394,1228
17,720,1782,-6879,-362,1660,400,1169
15,229,1782,-6879,-371,1674,409,1142
12,-221,1782,-6879,-375,1679,419,1102
11,-377,1638,-6879,-371,1679,428,1052
10,-412,1638,-6879,-368,1678,435,1025
9,195,1638,-6879,-364,1677,440,1019
9,960,1638,-6879,-340,1681,445,1042
10,758,1523,-6879,-301,1695,450,1078
11,205,1523,-6879,-267,1715,453,1068
12,42,1523,-6879,-244,1730,454,1009
13,-43,1523,-6879,-228,1736,452,931
14,-214,1431,-6879,-220,1734,445,838
13,-378,1431,-6879,-220,1728,433,737
13,-350,1431,-6879,-225,1720,417,646
13,-29,1431,-6879,-234,1710,400,581
13,167,1353,-6879,-240,1699,387,558
13,56,1353,-6879,-236,1696,378,571
11,24,1353,-6879,-221,1708,374,602
9,102,1353,-6879,-204,1727,372,642
8,73,1301,-6879,-197,1739,369,700
7,-137,1301,-6879,-201,1739,367,777
9,-390,1301,-6879,-206,1732,369,862
10,-401,1301,-6879,-204,1725,373,947
11,-184,1276,-6879,-194,1719,377,1048
12,-69,1276,-6879,-177,1695,379,1186
14,26,1276,-6879,-153,1654,378,1369
14,393,1276,-6879,-128,1622,373,1553
12,561,1280,-6879,-107,1612,364,1651
10,260,1280,-6879,-92,1615,355,1628
6,-103,1280,-6879,-77,1622,346,1505
3,-213,1280,-6879,-61,1628,337,1338
0,-117,1293,-6879,-51,1628,324,1208
-1,44,1293,-6879,-45,1625,312,1149
0,139,1293,-6879,-39,1621,303,1126
1,-73,1293,-6879,-33,1616,298,1088
3,-354,1330,-6879,-25,1613,297,1039
3,-386,1330,-6879,-9,1620,304,1013
4,-296,1330,-6879,14,1637,320,1013
4,-160,1330,-6879,36,1654,337,1027
6,29,1417,-6879,49,1660,353,1050
8,88,1417,-6879,56,1655,368,1077
11,-67,1417,-6879,61,1644,384,1113
14,-41,1417,-6879,64,1625,401,1179
15,369,1555,-6879,69,1599,415,1262
14,713,1555,-6879,75,1575,427,1327
14,506,1555,-6879,74,1557,438,1368
13,-331,1555,-6879,55,1545,444,1381
11,-964,1721,-6879,29,1537,445,1357
10,-536,1721,-6879,7,1529,440,1324
9,273,1721,-6879,-16,1516,428,1327
6,562,1721,-6879,-46,1497,412,1376
4,442,1872,-6879,-81,1479,394,1451
2,220,1872,-6879,-115,1461,377,1527
3,119,1872,-6879,-143,1438,361,1570
5,256,1872,-6879,-164,1416,346,1561
7,328,2009,-6879,-180,1397,335,1514
9,165,2009,-6879,-192,1382,328,1440
10,33,2009,-6879,-197,1375,326,1333
11,-79,2009,-6879,-194,1374,329,1178
12,-440,2165,-6879,-183,1374,336,1008
13,-781,2165,-6879,-169,1375,343,862
14,-746,2165,-6879,-154,1377,346,746
14,-518,2165,-6879,-141,1377,346,671
12,-235,2372,-6879,-134,1369,342,639
9,150,2372,-6879,-130,1355,335,637
6,451,2372,-6879,-125,1338,330,662
4,459,2372,-6879,-116,1327,327,689
3,304,2616,-6879,-105,1324,327,680
2,135,2616,-6879,-88,1328,330,653
1,-69,2616,-6879,-67,1339,335,637
0,-254,2616,-6879,-49,1352,339,632
-2,-225,2833,-6879,-38,1362,338,650
-3,-7,2833,-6879,-32,1370,335,698
-4,156,2833,-6879,-25,1374,334,773
-6,276,2833,-6879,-19,1374,335,866
-7,328,2983,-6879,-14,1373,340,947
-6,77,2983,-6879,-5,1374,350,1002
-4,-262,2983,-6879,11,1380,366,1062
-2,-382,2983,-6879,31,1388,381,1166
-1,-312,3073,-6879,46,1394,393,1315
-1,0,3073,-6879,53,1397,401,1466
-2,132,3073,-6879,57,1398,408,1574
-5,-241,3073,-6879,56,1395,413,1639
-6,-413,3141,-6879,50,1381,413,1674
-6,-93,3141,-6879,46,1354,405,1679
-4,214,3141,-6879,55,1332,397,1633
-2,305,3141,-6879,74,1328,391,1532
0,257,3202,-6879,95,1336,386,1412
2,148,3202,-6879,106,1347,381,1331
4,118,3202,-6879,103,1349,376,1325
3,165,3202,-6879,95,1344,374,1382
2,213,3243,-6879,85,1341,377,1443
0,175,3243,-6879,78,1345,384,1447
-2,-61,3243,-6879,77,1356,394,1368
-4,-260,3243,-6879,84,1373,404,1233
-6,-195,3257,-6879,98,1394,410,1107
-6,-6,3257,-6879,114,1407,410,1044
-6,75,3257,-6879,124,1404,400,1051
-4,-9,3257,-6879,128,1390,387,1095
-4,-117,3237,-6879,135,1378,375,1137
-4,-204,3237,-6879,152,1376,362,1159
-4,-229,3237,-6879,180,1383,345,1148
-4,-2,3237,-6879,209,1391,327,1095
-5,285,3192,-6879,221,1392,307,1014
-5,194,3192,-6879,212,1386,288,951
-5,-111,3192,-6879,192,1381,276,934
-6,-168,3192,-6879,186,1381,270,974
-7,-14,3139,-6879,243,1388,268,1088
-9,-49,3139,-6879,387,1402,272,1262
-10,-305,3139,-6879,578,1411,279,1440
-11,-188,3139,-6879,756,1411,287,1586
-10,381,3101,-6879,898,1409,289,1698
-8,640,3101,-6879,988,1405,291,1756
-6,394,3101,-6879,1016,1398,298,1728
-4,177,3101,-6879,976,1388,310,1620
-2,56,3099,-6879,874,1375,321,1475
-2,-220,3099,-6879,741,1357,331,1331
-3,-335,3099,-6879,649,1341,343,1201
-5,-156,3099,-6879,754,1338,359,1085
-7,-27,3110,-6879,1249,1360,377,1003
-8,15,3110,-6879,2093,1418,392,974
-9,26,3110,-6879,2935,1499,398,992
-10,9,3110,-6879,3441,1569,396,1036
-9,20,3109,-6879,3524,1600,392,1058
-10,-59,3109,-6879,3288,1593,387,1010
-10,-353,3109,-6879,2907,1570,379,924
-10,-505,3109,-6879,2486,1542,369,876
-10,-270,3085,-6879,2079,1510,358,880
-12,-56,3085,-6879,1699,1479,349,903
-13,-17,3085,-6879,1271,1461,346,950
-12,91,3085,-6879,801,1488,350,1032
-10,175,3069,-6879,462,1581,360,1109
-8,-90,3069,-6879,451,1727,367,1149
-7,-545,3069,-6879,1103,1915,368,1129
-6,-527,3069,-6879,2671,2141,363,1054
-6,44,3101,-6879,4548,2375,358,989
-7,310,3101,-6879,5764,2569,363,972
-9,18,3101,-6879,6073,2707,375,983
-11,-46,3101,-6879,5858,2789,391,1026
-12,196,3158,-6879,5828,2805,404,1120
-12,280,3158,-6879,6393,2871,411,1242
-11,180,3158,-6879,7087,3141,409,1328
-10,-89,3158,-6879,7473,3506,395,1363
-9,-168,3213,-6879,7649,3737,374,1415
-8,224,3213,-6879,7667,3780,358,1502
-7,517,3213,-6879,7438,3780,356,1568
-6,390,3213,-6879,6802,3874,363,1588
-5,179,3240,-6879,5729,3981,370,1580
-5,75,3240,-6879,4495,4040,361,1594
-5,-22,3240,-6879,3422,4217,331,1663
-6,-144,3240,-6879,2558,4635,298,1747
-8,-359,3273,-6879,1739,5142,283,1783
-11,-568,3273,-6879,1195,5400,285,1763
-14,-356,3273,-6879,1815,5232,302,1722
-16,57,3273,-6879,4025,4854,321,1701
-17,143,3346,-6879,6642,4611,327,1698
-20,-27,3346,-6879,8365,4578,320,1689
-22,-276,3346,-6879,9600,4591,308,1697
-24,-379,3346,-6879,10910,4497,295,1713
-24,-80,3439,-6879,11548,4097,300,1677
-23,204,3439,-6879,10751,3277,339,1639
-21,139,3439,-6879,8724,2309,400,1731
-18,66,3439,-6879,6109,1575,461,1997
-16,-9,3531,-6879,3495,1269,506,2333
-14,-252,3531,-6879,1382,1401,528,2570
-12,-456,3531,-6879,305,1727,530,2666
-12,-399,3531,-6879,653,1950,534,2677
-12,-245,3595,-6879,2158,1998,544,2618
-12,-264,3595,-6879,4037,2124,538,2520
-13,-377,3595,-6879,5513,2839,497,2433
-12,-466,3595,-6879,6351,4093,411,2379
-13,-314,3655,-6879,6898,5309,292,2348
-14,219,3655,-6879,7495,6107,186,2358
-14,634,3655,-6879,8272,6222,133,2429
-15,586,3655,-6879,8651,5705,138,2442
-15,437,3733,-6879,7811,4917,183,2272
-15,222,3733,-6879,5996,4078,250,2019
-16,-26,3733,-6879,3919,3323,318,1854
-16,-21,3733,-6879,2163,2778,363,1780
-18,115,3852,-6879,1456,2712,370,1681
-21,292,3852,-6879,2108,3566,333,1517
-22,267,3852,-6879,3431,5079,266,1373
-23,47,3852,-6879,4456,6450,185,1293
-23,91,4025,-6879,4934,7360,96,1234
-22,12,4025,-6879,5113,7690,25,1209
-21,-492,4025,-6879,5326,7317,15,1257
-20,-645,4025,-6879,5768,6279,78,1337
-20,-210,4218,-6879,6179,4735,186,1410
-19,91,4218,-6879,6341,3077,305,1474
-18,-40,4218,-6879,6345,1666,416,1541
-17,-50,4218,-6879,6418,544,512,1651
-15,203,4428,-6879,6725,-343,578,1821
-13,41,4428,-6879,6843,-948,606,2011
-10,-481,4428,-6879,6268,-1270,606,2195
-8,-581,4428,-6879,5237,-1351,586,2329
-7,-193,4663,-6879,4305,-1045,530,2357
-6,178,4663,-6879,3752,-79,425,2342
-5,108,4663,-6879,3807,1405,307,2348
-5,-190,4663,-6879,4511,2763,223,2356
-5,-8,4954,-6879,5272,3611,183,2336
-7,433,4954,-6879,5441,4012,171,2248
-9,508,4954,-6879,5068,4066,173,2093
-12,353,4954,-6879,4672,3909,189,1931
-13,323,5292,-6879,4422,3632,226,1798
-15,449,5292,-6879,4182,3161,279,1707
-18,357,5292,-6879,4191,2680,315,1663
-20,-144,5292,-6879,4875,2580,316,1629
-20,-725,5610,-6879,5817,2825,301,1567
-21,-1073,5610,-6879,6102,2934,292,1523
-21,-839,5610,-6879,5702,2669,284,1553
-20,135,5610,-6879,5310,2272,265,1610
-19,1032,5889,-6879,5597,1947,252,1614
-17,937,5889,-6879,6561,1723,257,1557
-16,318,5889,-6879,7507,1658,264,1447
-15,136,5889,-6879,8016,1916,259,1309
-15,307,6131,-6879,8456,2541,228,1195
-15,477,6131,-6879,9103,3211,174,1135
-16,577,6131,-6879,9212,3578,130,1154
-15,386,6131,-6879,8184,3553,133,1288
-14,1,6357,-6879,6509,3170,181,1550
-14,-212,6357,-6879,4897,2565,253,1908
-13,-237,6357,-6879,3780,1961,331,2264
-12,-385,6357,-6879,3326,1454,401,2499
-11,-449,6550,-6879,3330,941,461,2511
-10,-21,6550,-6879,3370,390,515,2297
-9,231,6550,-6879,3247,-22,558,1959
-8,-305,6550,-6879,3072,-75,575,1612
-8,-934,6689,-6879,3096,268,558,1345
-7,-799,6689,-6879,3488,762,516,1166
-7,-199,6689,-6879,4211,1100,466,1019
-7,99,6689,-6879,5128,1201,415,852
-8,66,6788,-6879,6056,1222,366,611
-9,11,6788,-6879,6766,1260,328,352
-10,-90,6788,-6879,7096,1179,302,207
-12,-200,6788,-6879,7046,913,284,231
-15,49,6834,-6879,6731,598,277,411
-17,480,6834,-6879,6282,374,284,687
-18,521,6834,-6879,5801,292,300,971
-19,216,6834,-6879,5358,302,317,1184
-19,59,6817,-6879,5028,338,332,1297
-18,190,6817,-6879,4876,380,340,1326
-15,222,6817,-6879,4937,421,341,1295
-12,-40,6817,-6879,5190,469,341,1242
-11,-287,6735,-6879,5495,501,340,1217
-12,-140,6735,-6879,5703,464,335,1250
-13,130,6735,-6879,5781,368,327,1342
-14,-70,6735,-6879,5754,281,314,1459
-15,-289,6622,-6879,5678,252,290,1539
-15,158,6622,-6879,5626,280,261,1524
-14,754,6622,-6879,5661,339,234,1422
-12,825,6622,-6879,5802,384,216,1296
-11,354,6517,-6879,6000,382,209,1233
-11,-195,6517,-6879,6177,329,217,1211
-10,-305,6517,-6879,6264,240,240,1109
-8,-173,6517,-6879,6237,137,276,944
-7,-172,6418,-6879,6158,54,319,843
-6,-142,6418,-6879,6099,19,360,847
-4,3,6418,-6879,6064,36,389,923
-2,105,6418,-6879,6031,90,400,1028
-1,111,6308,-6879,5991,149,391,1112
-1,140,6308,-6879,5957,192,369,1168
-1,70,6308,-6879,5956,203,341,1228
0,-108,6308,-6879,6006,170,309,1307
-1,-148,6155,-6879,6097,95,277,1376
-2,-185,6155,-6879,6211,1,245,1394
-5,-174,6155,-6879,6320,-84,217,1355
-7,-52,6155,-6879,6397,-145,189,1276
-8,-43,5920,-6879,6429,-168,160,1164
-6,-23,5920,-6879,6429,-150,134,1064
-4,176,5920,-6879,6423,-104,118,1043
-1,257,5920,-6879,6429,-54,109,1085
0,-6,5613,-6879,6451,-23,107,1097
1,-282,5613,-6879,6485,-20,112,1051
2,-413,5613,-6879,6529,-50,128,977
2,-359,5613,-6879,6592,-110,153,871
2,102,5260,-6879,6673,-185,180,747
2,475,5260,-6879,6757,-253,203,668
1,290,5260,-6879,6815,-302,218,673
0,70,5260,-6879,6824,-327,227,759
-2,346,4874,-6879,6790,-327,235,924
-4,808,4874,-6879,6742,-313,237,1142
-5,801,4874,-6879,6709,-311,230,1297
-5,367,4874,-6879,6701,-334,216,1287
-4,-232,4416,-6879,6719,-368,195,1177
-3,-873,4416,-6879,6763,-409,167,1064
-4,-1236,4416,-6879,6825,-469,142,930
-5,-1071,4416,-6879,6900,-533,131,756
-5,-541,3840,-6879,6984,-570,134,626
-4,-2,3840,-6879,7040,-570,141,589
-5,428,3840,-6879,7034,-547,147,617
-5,393,3840,-6879,6996,-517,144,717
-5,-64,3174,-6879,6991,-498,135,880
-5,-294,3174,-6879,7036,-497,124,1040
-3,-95,3174,-6879,7094,-515,116,1123
0,378,3174,-6879,7122,-547,111,1074
1,652,2464,-6879,7095,-587,112,925
3,508,2464,-6879,7007,-628,120,767
3,360,2464,-6879,6891,-659,129,636
0,226,2464,-6879,6770,-674,131,541
-2,-34,1750,-6879,6646,-679,121,488
-3,-296,1750,-6879,6536,-682,104,457
-4,-428,1750,-6879,6462,-692,83,416
-4,-223,1750,-6879,6410,-707,63,357
-4,-45,1023,-6879,6380,-729,48,268
-1,-150,1023,-6879,6422,-763,38,160
0,-135,1023,-6879,6549,-800,30,104
0,39,1023,-6879,6685,-828,21,155
1,193,291,-6879,6745,-845,12,318
1,179,291,-6879,6723,-845,6,517
1,134,291,-6879,6660,-831,1,612
1,205,291,-6879,6598,-807,-2,561
0,75,-408,-6879,6561,-777,-4,439
0,-33,-408,-6879,6550,-752,0,286
-1,178,-408,-6879,6531,-727,8,117
-3,305,-408,-6879,6473,-707,18,-37
-4,234,-1050,-6879,6375,-702,25,-184
-4,123,-1050,-6879,6258,-706,28,-323
-6,-36,-1050,-6879,6141,-711,30,-426
-9,-170,-1050,-6879,6025,-714,29,-506
-10,-156,-1615,-6879,5915,-702,20,-584
-9,-20,-1615,-6879,5834,-673,3,-627
-8,-7,-1615,-6879,5789,-640,-14,-607
-9,-125,-1615,-6879,5768,-617,-20,-567
-8,-257,-2119,-6879,5786,-600,-10,-532
-7,-492,-2119,-6879,5846,-573,15,-482
-8,-471,-2119,-6879,5913,-543,48,-442
-9,143,-2119,-6879,5954,-535,75,-404
-9,668,-2564,-6879,5954,-553,95,-314
-7,348,-2564,-6879,5917,-585,107,-217
-6,-188,-2564,-6879,5860,-614,115,-195
-5,-135,-2564,-6879,5797,-630,118,-221
-4,77,-2935,-6879,5740,-624,116,-223
-5,-20,-2935,-6879,5693,-591,109,-175
-6,-177,-2935,-6879,5651,-542,95,-79
-7,-45,-2935,-6879,5614,-496,76,17
-7,276,-3229,-6879,5586,-456,56,70
-6,425,-3229,-6879,5566,-414,36,112
-4,309,-3229,-6879,5550,-364,21,177
-3,-9,-3229,-6879,5535,-307,14,190
-1,-227,-3462,-6879,5517,-250,16,99
1,252,-3462,-6879,5488,-195,24,-42
3,982,-3462,-6879,5446,-143,34,-210
5,621,-3462,-6879,5388,-105,44,-411
6,-512,-3684,-6879,5317,-91,55,-604
7,-977,-3684,-6879,5231,-116,65,-722
7,-663,-3684,-6879,5131,-167,74,-744
7,-333,-3684,-6879,5038,-220,85,-706
7,-300,-3896,-6879,4970,-264,102,-642
7,-292,-3896,-6879,4919,-295,123,-572
8,-241,-3896,-6879,4865,-312,141,-504
7,-239,-3896,-6879,4817,-321,150,-442
5,-62,-4056,-6879,4781,-323,150,-429
2,142,-4056,-6879,4746,-315,143,-478
1,-8,-4056,-6879,4705,-294,133,-550
1,-223,-4056,-6879,4660,-270,121,-614
2,-8,-4148,-6879,4612,-255,106,-668
4,467,-4148,-6879,4564,-241,92,-711
5,818,-4148,-6879,4514,-223,83,-717
6,699,-4148,-6879,4454,-208,81,-660
8,33,-4215,-6879,4388,-201,84,-564
10,-558,-4215,-6879,4324,-199,93,-457
13,-694,-4215,-6879,4269,-203,103,-339
15,-434,-4215,-6879,4251,-223,115,-230
14,45,-4324,-6879,4277,-266,124,-156
13,273,-4324,-6879,4299,-306,130,-100
12,193,-4324,-6879,4283,-328,134,-48
11,174,-4324,-6879,4226,-336,137,-19
9,174,-4475,-6879,4134,-342,135,-24
7,-27,-4475,-6879,4011,-347,124,-110
7,-382,-4475,-6879,3879,-348,105,-333
8,-476,-4475,-6879,3771,-349,80,-632
8,40,-4609,-6879,3695,-348,54,-894
6,569,-4609,-6879,3638,-338,28,-1070
4,543,-4609,-6879,3592,-317,8,-1170
1,189,-4609,-6879,3557,-291,-4,-1210
0,-317,-4679,-6879,3529,-261,-17,-1189
-2,-606,-4679,-6879,3511,-232,-35,-1112
-3,-354,-4679,-6879,3504,-203,-50,-1034
-4,-13,-4679,-6879,3480,-187,-41,-1011
-4,146,-4681,-6879,3414,-185,-10,-1021
-3,249,-4681,-6879,3338,-187,24,-984
-3,15,-4681,-6879,3282,-188,54,-906
-1,-335,-4681,-6879,3234,-186,85,-876
0,-200,-4635,-6879,3180,-187,120,-899
0,196,-4635,-6879,3115,-194,157,-908
1,444,-4635,-6879,3041,-204,198,-882
1,452,-4635,-6879,2973,-208,235,-836
0,263,-4550,-6879,2922,-217,262,-791
0,26,-4550,-6879,2885,-235,277,-762
-1,-140,-4550,-6879,2869,-255,276,-782
-1,-205,-4550,-6879,2891,-275,259,-886
-1,-110,-4418,-6879,2938,-293,232,-1026
-1,4,-4418,-6879,2971,-303,201,-1135
-1,5,-4418,-6879,2956,-305,168,-1189
-1,111,-4418,-6879,2885,-299,133,-1187
-2,96,-4246,-6879,2787,-290,101,-1146
-2,-57,-4246,-6879,2719,-287,66,-1097
-2,175,-4246,-6879,2722,-295,23,-1044
-1,457,-4246,-6879,2766,-307,-20,-963
0,284,-4035,-6879,2789,-308,-55,-829
-1,-188,-4035,-6879,2769,-293,-78,-647
-2,-636,-4035,-6879,2720,-267,-93,-465
-3,-689,-4035,-6879,2664,-238,-105,-354
-4,-366,-3776,-6879,2614,-208,-122,-349
-4,-127,-3776,-6879,2564,-180,-134,-439
-4,-61,-3776,-6879,2508,-170,-120,-555
-5,9,-3776,-6879,2447,-186,-83,-646
-5,5,-3452,-6879,2393,-214,-41,-737
-5,-171,-3452,-6879,2360,-243,2,-820
-4,-329,-3452,-6879,2344,-267,43,-855
-4,1,-3452,-6879,2329,-293,78,-861
-5,528,-3074,-6879,2298,-320,109,-861
-6,491,-3074,-6879,2248,-338,138,-818
-6,56,-3074,-6879,2210,-353,162,-734
-5,-282,-3074,-6879,2193,-378,174,-683
-4,-302,-2699,-6879,2160,-420,174,-704
-3,60,-2699,-6879,2095,-473,167,-757
-2,322,-2699,-6879,1999,-536,152,-807
-1,197,-2699,-6879,1876,-599,133,-860
27,773,-2370,-6879,-1099,747,367,741
25,1606,-2370,-6879,-295,1031,427,879
23,2010,-2370,-6879,965,1427,526,1123
21,1933,-2370,-6879,2348,1827,629,1392
20,1736,-2085,-6879,3658,2191,722,1641
18,1572,-2085,-6879,4820,2517,802,1853
16,1428,-2085,-6879,5821,2819,866,2018
14,1263,-2085,-6879,6644,3106,908,2112
12,813,-1801,-6879,7282,3368,930,2137
11,86,-1801,-6879,7748,3586,937,2132
8,-475,-1801,-6879,8056,3740,933,2126
6,-691,-1801,-6879,8199,3823,921,2136
4,-655,-1492,-6879,8177,3838,904,2180
3,-595,-1492,-6879,8033,3785,889,2264
3,-901,-1492,-6879,7822,3684,885,2360
3,-1306,-1492,-6879,7609,3575,894,2404
4,-1163,-1195,-6879,7464,3488,913,2338
5,-508,-1195,-6879,7421,3444,940,2170
6,221,-1195,-6879,7464,3446,967,1984
8,292,-1195,-6879,7535,3476,986,1852
9,-377,-943,-6879,7573,3508,993,1765
8,-867,-943,-6879,7545,3516,985,1699
8,-789,-943,-6879,7446,3485,957,1644
9,-564,-943,-6879,7289,3412,911,1594
11,-581,-752,-6879,7109,3314,859,1569
11,-629,-752,-6879,6940,3215,814,1591
11,-436,-752,-6879,6810,3139,784,1663
11,-179,-752,-6879,6726,3095,764,1773
10,-80,-590,-6879,6682,3076,742,1899
10,-83,-590,-6879,6674,3082,718,2044
10,54,-590,-6879,6685,3110,716,2209
10,174,-590,-6879,6674,3127,737,2376
7,-78,-439,-6879,6613,3112,760,2543
4,-690,-439,-6879,6516,3071,774,2670
4,-1092,-439,-6879,6414,3015,780,2708
5,-848,-439,-6879,6334,2958,782,2673
6,-338,-308,-6879,6282,2920,784,2598
7,36,-308,-6879,6266,2913,788,2518
7,159,-308,-6879,6287,2934,790,2464
8,46,-308,-6879,6320,2973,789,2417
8,-88,-196,-6879,6340,3019,784,2358
7,-105,-196,-6879,6328,3060,774,2288
6,-89,-196,-6879,6280,3084,756,2211
6,54,-196,-6879,6204,3083,731,2136
5,453,-108,-6879,6108,3054,704,2066
5,767,-108,-6879,6003,3013,684,1992
5,597,-108,-6879,5900,2977,675,1932
6,-65,-108,-6879,5815,2956,675,1919
8,-659,-40,-6879,5752,2954,681,1958
11,-564,-40,-6879,5698,2966,686,2019
13,-31,-40,-6879,5635,2980,693,2073
15,265,-40,-6879,5566,2993,708,2113
16,168,-26,-6879,5487,2995,730,2147
18,-100,-26,-6879,5380,2965,754,2167
20,-261,-26,-6879,5241,2897,771,2163
21,-143,-26,-6879,5093,2804,782,2153
22,345,-83,-6879,4959,2707,790,2157
23,902,-83,-6879,4847,2617,794,2158
23,435,-83,-6879,4757,2541,794,2127
21,-581,-83,-6879,4686,2474,787,2063
19,-562,-209,-6879,4623,2408,768,1977
15,-24,-209,-6879,4550,2341,739,1888
13,119,-209,-6879,4458,2265,706,1806
11,88,-209,-6879,4337,2171,671,1730
11,155,-392,-6879,4195,2058,632,1645
10,198,-392,-6879,4040,1943,589,1536
9,32,-392,-6879,3882,1842,544,1417
8,-78,-392,-6879,3737,1757,501,1317
8,44,-607,-6879,3619,1689,462,1241
9,191,-607,-6879,3521,1637,428,1182
11,169,-607,-6879,3422,1593,397,1150
12,72,-607,-6879,3307,1548,368,1145
12,-38,-836,-6879,3173,1499,340,1134
11,-222,-836,-6879,3033,1441,311,1105
9,-335,-836,-6879,2902,1378,287,1067
7,-394,-836,-6879,2793,1315,267,1020
4,-382,-1054,-6879,2714,1255,249,960
1,-63,-1054,-6879,2641,1201,231,895
-1,377,-1054,-6879,2542,1151,215,840
-4,586,-1054,-6879,2419,1109,201,804
-5,469,-1280,-6879,2299,1072,184,774
-7,26,-1280,-6879,2193,1031,162,735
-7,-457,-1280,-6879,2102,984,137,687
-6,-565,-1280,-6879,2014,929,113,632
-4,-248,-1541,-6879,1910,858,92,571
0,192,-1541,-6879,1784,770,73,512
2,330,-1541,-6879,1653,681,61,451
6,103,-1541,-6879,1529,597,55,384
10,-110,-1819,-6879,1417,520,50,335
12,-77,-1819,-6879,1318,460,52,333
14,74,-1819,-6879,1241,420,62,355
14,115,-1819,-6879,1192,398,73,346
12,-176,-2068,-6879,1155,380,83,299
11,-595,-2068,-6879,1106,339,104,250
10,-463,-2068,-6879,1061,258,137,222
8,7,-2068,-6879,1063,158,167,210
6,209,-2263,-6879,1117,61,185,205
4,252,-2263,-6879,1169,-27,193,208
1,215,-2263,-6879,1179,-103,197,217
-1,127,-2263,-6879,1141,-151,203,221
-3,126,-2442,-6879,1067,-171,216,215
-4,200,-2442,-6879,968,-184,226,200
-4,319,-2442,-6879,857,-195,226,175
-3,221,-2442,-6879,735,-196,221,144
-1,-213,-2627,-6879,600,-185,216,117
1,-542,-2627,-6879,457,-170,213,99
4,-626,-2627,-6879,321,-156,209,85
6,-555,-2627,-6879,205,-143,200,75
8,-175,-2810,-6879,126,-131,187,58
10,259,-2810,-6879,88,-127,168,16
10,317,-2810,-6879,86,-128,146,-41
11,125,-2810,-6879,98,-129,124,-87
11,-26,-2973,-6879,107,-130,101,-117
13,5,-2973,-6879,111,-131,76,-155
16,191,-2973,-6879,93,-138,47,-211
18,144,-2973,-6879,41,-159,10,-274
19,-189,-3112,-6879,-36,-198,-30,-337
17,-223,-3112,-6879,-122,-246,-71,-393
13,185,-3112,-6879,-197,-289,-104,-435
10,357,-3112,-6879,-246,-320,-130,-482
8,83,-3232,-6879,-266,-344,-150,-538
8,-183,-3232,-6879,-267,-380,-163,-578
7,-271,-3232,-6879,-265,-433,-172,-594
6,-133,-3232,-6879,-268,-490,-181,-595
5,134,-3327,-6879,-273,-540,-191,-588
5,240,-3327,-6879,-291,-583,-199,-565
5,38,-3327,-6879,-332,-628,-201,-519
5,-178,-3327,-6879,-393,-674,-195,-468
5,-170,-3416,-6879,-466,-712,-181,-443
3,-329,-3416,-6879,-537,-743,-163,-435
2,-284,-3416,-6879,-585,-774,-151,-424
0,394,-3416,-6879,-609,-807,-150,-421
0,683,-3511,-6879,-615,-832,-154,-436
-1,-7,-3511,-6879,-610,-842,-162,-463
-3,-959,-3511,-6879,-603,-844,-173,-491
-5,-1159,-3511,-6879,-602,-847,-189,-508
-7,-475,-3582,-6879,-614,-856,-207,-521
-8,245,-3582,-6879,-640,-869,-223,-550
-9,490,-3582,-6879,-665,-877,-236,-592
-10,458,-3582,-6879,-677,-874,-240,-621
-11,411,-3593,-6879,-681,-855,-234,-627
-10,363,-3593,-6879,-691,-834,-221,-629
-9,335,-3593,-6879,-705,-828,-209,-639
-7,359,-3593,-6879,-715,-835,-199,-656
-7,265,-3554,-6879,-717,-829,-186,-679
-6,36,-3554,-6879,-710,-797,-170,-721
-6,-73,-3554,-6879,-708,-752,-160,-791
-7,133,-3554,-6879,-722,-711,-158,-861
-8,475,-3516,-6879,-749,-677,-160,-893
-9,291,-3516,-6879,-771,-649,-165,-875
-9,-658,-3516,-6879,-776,-629,-176,-822
-11,-1317,-3516,-6879,-771,-615,-186,-775
-12,-790,-3483,-6879,-770,-606,-194,-759
-12,133,-3483,-6879,-774,-605,-198,-770
-13,605,-3483,-6879,-780,-612,-200,-790
-13,609,-3483,-6879,-793,-622,-198,-803
-14,315,-3400,-6879,-807,-631,-192,-797
-13,95,-3400,-6879,-811,-641,-184,-771
-11,-1,-3400,-6879,-801,-658,-179,-733
-9,-104,-3400,-6879,-784,-672,-175,-695
-7,-20,-3243,-6879,-775,-671,-169,-676
-5,286,-3243,-6879,-788,-657,-162,-670
-3,432,-3243,-6879,-820,-637,-153,-661
-2,301,-3243,-6879,-860,-618,-146,-654
-2,522,-3054,-6879,-908,-607,-142,-654
-3,1032,-3054,-6879,-968,-598,-139,-664
-4,644,-3054,-6879,-1030,-590,-132,-665
-4,-536,-3054,-6879,-1067,-586,-120,-634
-5,-1229,-2888,-6879,-1078,-589,-107,-588
-4,-1064,-2888,-6879,-1075,-597,-92,-557
-3,-534,-2888,-6879,-1065,-610,-79,-547
-1,-155,-2888,-6879,-1055,-625,-72,-557
0,-9,-2746,-6879,-1046,-637,-73,-574
4,-80,-2746,-6879,-1037,-649,-80,-592
7,-314,-2746,-6879,-1023,-662,-92,-611
9,-437,-2746,-6879,-1004,-675,-106,-633
8,-505,-2573,-6879,-987,-694,-127,-669
7,-504,-2573,-6879,-984,-720,-149,-709
5,7,-2573,-6879,-1008,-752,-172,-721
2,751,-2573,-6879,-1041,-786,-198,-703
0,817,-2338,-6879,-1039,-819,-220,-674
-1,315,-2338,-6879,-964,-858,-236,-644
-3,28,-2338,-6879,-857,-898,-246,-610
-4,136,-2338,-6879,-801,-922,-250,-570
-5,378,-2045,-6879,-822,-930,-249,-526
-5,137,-2045,-6879,-890,-934,-246,-482
-4,-496,-2045,-6879,-948,-939,-246,-430
-3,-519,-2045,-6879,-975,-947,-247,-368
-4,-70,-1734,-6879,-1010,-951,-248,-306
-4,175,-1734,-6879,-1082,-946,-248,-256
-4,295,-1734,-6879,-1184,-929,-248,-226
-3,300,-1734,-6879,-1284,-899,-244,-222
-1,180,-1438,-6879,-1359,-862,-240,-251
0,198,-1438,-6879,-1408,-839,-246,-302
1,218,-1438,-6879,-1438,-836,-262,-360
2,110,-1438,-6879,-1443,-827,-279,-419
2,33,-1144,-6879,-1418,-801,-288,-474
2,-99,-1144,-6879,-1373,-770,-293,-534
2,-220,-1144,-6879,-1292,-743,-296,-605
4,-200,-1144,-6879,-1159,-718,-296,-680
5,-145,-824,-6879,-1038,-691,-292,-747
6,-78,-824,-6879,-1009,-662,-284,-794
5,-38,-824,-6879,-1043,-641,-276,-825
3,-140,-824,-6879,-1071,-635,-272,-838
1,-139,-466,-6879,-1068,-639,-272,-825
0,169,-466,-6879,-1018,-649,-277,-785
-2,397,-466,-6879,-892,-659,-280,-728
-4,164,-466,-6879,-756,-667,-280,-669
-5,-140,-103,-6879,-724,-675,-281,-612
-6,95,-103,-6879,-812,-692,-290,-560
-8,525,-103,-6879,-964,-725,-310,-522
-11,390,-103,-6879,-1129,-765,-329,-485
-12,-190,225,-6879,-1281,-789,-330,-426
-13,-478,225,-6879,-1403,-779,-312,-350
-14,-359,225,-6879,-1488,-738,-285,-277
-17,-164,225,-6879,-1541,-694,-255,-220
-20,-38,520,-6879,-1570,-680,-234,-200
-23,-95,520,-6879,-1581,-689,-221,-210
-25,-107,520,-6879,-1563,-693,-212,-222
-28,192,520,-6879,-1513,-694,-206,-226
-30,220,804,-6879,-1434,-689,-205,-227
-31,-314,804,-6879,-1339,-665,-200,-230
-32,-454,804,-6879,-1241,-629,-189,-248
-31,112,804,-6879,-1161,-592,-179,-284
-31,629,1105,-6879,-1118,-544,-170,-336
-30,600,1105,-6879,-1100,-483,-157,-388
-29,50,1105,-6879,-1084,-423,-139,-419
-27,-580,1105,-6879,-1071,-372,-118,-438
-24,-739,1418,-6879,-1068,-334,-101,-457
-22,-247,1418,-6879,-1073,-313,-92,-467
-22,336,1418,-6879,-1079,-309,-90,-463
-23,429,1418,-6879,-1079,-316,-91,-454
-25,315,1723,-6879,-1065,-328,-94,-441
-27,294,1723,-6879,-1035,-334,-101,-414
-28,191,1723,-6879,-1007,-339,-113,-373
-29,51,1723,-6879,-995,-347,-133,-324
-31,145,1999,-6879,-995,-357,-152,-277
-32,316,1999,-6879,-998,-371,-164,-236
-32,241,1999,-6879,-999,-381,-172,-202
-32,14,1999,-6879,-953,-381,-178,-187
-31,-159,2237,-6879,-811,-369,-185,-197
-31,-143,2237,-6879,-617,-352,-197,-214
-30,131,2237,-6879,-487,-340,-211,-218
-29,235,2237,-6879,-470,-342,-221,-199
-30,-229,2463,-6879,-532,-353,-223,-171
-30,-672,2463,-6879,-632,-356,-217,-148
-31,-481,2463,-6879,-750,-351,-206,-122
-30,-26,2463,-6879,-885,-342,-195,-91
-29,92,2689,-6879,-1018,-333,-189,-72
-30,-225,2689,-6879,-1126,-337,-195,-73
-30,-599,2689,-6879,-1211,-361,-217,-96
-32,-532,2689,-6879,-1274,-381,-240,-122
-33,-55,2918,-6879,-1302,-370,-248,-137
-33,280,2918,-6879,-1289,-332,-238,-137
-32,314,2918,-6879,-1242,-298,-214,-127
-32,212,2918,-6879,-1168,-281,-187,-124
-32,103,3151,-6879,-1076,-264,-170,-133
-32,78,3151,-6879,-983,-246,-167,-156
-32,9,3151,-6879,-896,-230,-176,-198
-32,-100,3151,-6879,-816,-212,-188,-241
-31,25,3385,-6879,-755,-185,-190,-272
-30,211,3385,-6879,-718,-163,-180,-299
-29,21,3385,-6879,-707,-169,-176,-334
-28,-305,3385,-6879,-720,-224,-194,-383
-28,-386,3616,-6879,-742,-290,-228,-428
-28,-275,3616,-6879,-763,-305,-252,-431
-28,-53,3616,-6879,-779,-271,-260,-395
-28,332,3616,-6879,-793,-216,-252,-355
-27,695,3821,-6879,-807,-157,-234,-327
-26,578,3821,-6879,-832,-101,-214,-289
-24,130,3821,-6879,-872,-47,-200,-235
-24,-37,3821,-6879,-910,-10,-199,-183
-23,111,3994,-6879,-927,21,-199,-138
-23,164,3994,-6879,-917,88,-185,-92
-22,-113,3994,-6879,-889,172,-161,-47
-22,-599,3994,-6879,-858,231,-136,-7
-21,-697,4166,-6879,-825,258,-109,38
-21,3,4166,-6879,-795,265,-79,87
-20,761,4166,-6879,-791,266,-51,121
-19,780,4166,-6879,-810,261,-24,131
-16,284,4346,-6879,-804,242,-4,123
-14,-149,4346,-6879,-761,192,-2,119
-13,-259,4346,-6879,-712,138,-12,131
-12,-341,4346,-6879,-677,126,-14,158
-10,-371,4535,-6879,-660,144,-3,193
-9,-70,4535,-6879,-660,162,7,227
-8,159,4535,-6879,-665,163,6,249
-8,111,4535,-6879,-673,128,-13,250
-8,-86,4706,-6879,-689,64,-46,231
-9,-345,4706,-6879,-720,27,-78,201
-9,-301,4706,-6879,-761,48,-103,168
-9,104,4706,-6879,-797,108,-123,147
-10,448,4869,-6879,-818,173,-122,155
-11,425,4869,-6879,-819,215,-98,193
-13,27,4869,-6879,-797,238,-69,242
-14,-357,4869,-6879,-759,256,-47,278
-16,-244,5038,-6879,-723,257,-36,288
-17,176,5038,-6879,-701,238,-38,264
-17,331,5038,-6879,-697,214,-53,207
-17,236,5038,-6879,-717,204,-87,113
-16,296,5200,-6879,-757,215,-142,-1
-15,381,5200,-6879,-785,196,-187,-98
-15,110,5200,-6879,-783,121,-188,-153
-14,-320,5200,-6879,-771,53,-148,-179
-15,-638,5359,-6879,-758,43,-103,-203
-15,-821,5359,-6879,-729,83,-80,-219
-16,-603,5359,-6879,-693,154,-81,-201
-17,18,5359,-6879,-674,198,-77,-154
-18,395,5504,-6879,-682,175,-57,-112
-18,183,5504,-6879,-708,134,-37,-75
-18,-196,5504,-6879,-740,94,-23,-14
-18,-98,5504,-6879,-773,54,-10,74
-19,508,5652,-6879,-807,36,0,176
-20,887,5652,-6879,-844,19,9,269
-20,608,5652,-6879,-883,-26,23,340
-21,48,5652,-6879,-916,-86,38,398
-22,-219,5807,-6879,-932,-118,46,455
-22,-213,5807,-6879,-927,-90,39,516
-21,-353,5807,-6879,-905,-30,23,574
-19,-549,5807,-6879,-874,-25,8,608
-16,-446,5961,-6879,-843,-88,3,622
-13,-209,5961,-6879,-823,-101,10,647
-11,-142,5961,-6879,-807,-8,3,670
-10,-141,5961,-6879,-794,136,-42,658
-10,-136,6122,-6879,-795,269,-98,629
-10,-124,6122,-6879,-803,331,-118,611
-10,-7,6122,-6879,-800,312,-107,585
-10,110,6122,-6879,-778,247,-95,511
-9,138,6267,-6879,-747,169,-86,398
-10,100,6267,-6879,-720,136,-67,291
-13,-53,6267,-6879,-703,168,-35,205
-16,-104,6267,-6879,-689,224,1,138
-17,207,6400,-6879,-680,285,36,99
-16,605,6400,-6879,-682,336,61,71
-15,645,6400,-6879,-699,366,70,44
-15,282,6400,-6879,-720,384,67,21
-16,-64,6517,-6879,-734,400,61,4
-15,-231,6517,-6879,-733,405,51,-1
-14,-406,6517,-6879,-712,385,33,13
-13,-601,6517,-6879,-677,355,5,48
-13,-733,6638,-6879,-640,348,-14,100
-12,-694,6638,-6879,-591,358,-16,159
-12,-267,6638,-6879,-526,346,-15,204
-11,419,6638,-6879,-477,266,-22,217
-11,725,6795,-6879,-472,114,-33,203
-12,560,6795,-6879,-502,-35,-40,172
-13,378,6795,-6879,-548,-86,-39,132
-12,293,6795,-6879,-607,-21,-24,92
-13,248,6975,-6879,-671,86,-6,46
-14,268,6975,-6879,-728,179,0,-24
-15,381,6975,-6879,-766,259,0,-98
-16,535,6975,-6879,-787,330,10,-143
-18,421,7165,-6879,-802,386,38,-186
-19,-55,7165,-6879,-808,413,67,-259
-20,-550,7165,-6879,-803,409,79,-341
-19,-786,7165,-6879,-786,418,72,-398
-19,-373,7310,-6879,-755,472,57,-412
-18,491,7310,-6879,-717,517,31,-392
-17,781,7310,-6879,-685,482,-22,-367
-15,345,7310,-6879,-669,409,-87,-341
-14,-180,7416,-6879,-678,369,-117,-279
-14,-591,7416,-6879,-707,359,-95,-166
-15,-728,7416,-6879,-741,362,-45,-39
-15,-420,7416,-6879,-775,361,0,58
-15,-173,7526,-6879,-815,359,25,112
-15,-225,7526,-6879,-860,361,27,119
-14,-171,7526,-6879,-888,373,-2,122
-14,-108,7526,-6879,-877,432,-70,160
-14,-86,7653,-6879,-845,525,-139,230
-13,250,7653,-6879,-831,546,-165,313
-13,598,7653,-6879,-840,454,-150,372
-13,441,7653,-6879,-854,371,-112,412
-12,104,7789,-6879,-859,381,-58,451
-12,-97,7789,-6879,-860,446,-3,465
-10,-460,7789,-6879,-868,492,36,439
-9,-973,7789,-6879,-876,443,55,382
-7,-1047,7876,-6879,-867,317,52,301
-6,-301,7876,-6879,-841,204,28,185
-5,594,7876,-6879,-810,125,-11,48
-5,767,7876,-6879,-790,121,-71,-69
-5,485,7933,-6879,-785,262,-146,-142
-4,396,7933,-6879,-785,470,-190,-169
-3,445,7933,-6879,-782,589,-153,-163
0,202,7933,-6879,-767,571,-65,-151
1,-171,7991,-6879,-741,509,14,-132
2,-216,7991,-6879,-711,526,66,-83
2,-82,7991,-6879,-670,609,104,0
2,-85,7991,-6879,-624,687,159,104
1,-216,8054,-6879,-596,740,238,192
2,-121,8054,-6879,-602,770,311,236
4,541,8054,-6879,-629,775,363,254
6,936,8054,-6879,-641,760,389,266
8,349,8119,-6879,-645,730,385,261
8,-330,8119,-6879,-665,680,354,239
9,-597,8119,-6879,-690,638,308,221
9,-661,8119,-6879,-703,637,265,226
9,-528,8164,-6879,-702,647,237,246
8,-82,8164,-6879,-699,604,218,255
7,650,8164,-6879,-700,525,204,254
7,849,8164,-6879,-703,505,200,268
7,-6,8232,-6879,-702,523,199,302
8,-769,8232,-6879,-695,500,195,342
8,-541,8232,-6879,-686,498,182,384
9,-202,8232,-6879,-687,574,154,429
9,-250,8329,-6879,-691,667,136,492
9,-15,8329,-6879,-690,743,160,592
9,300,8329,-6879,-696,796,212,687
9,96,8329,-6879,-707,779,255,718
9,-175,8436,-6879,-704,698,272,691
9,-194,8436,-6879,-680,652,269,656
8,-18,8436,-6879,-641,684,269,650
8,429,8436,-6879,-605,739,294,676
8,717,8525,-6879,-584,784,325,702
9,395,8525,-6879,-576,835,332,695
11,-68,8525,-6879,-581,877,319,669
13,132,8525,-6879,-591,906,289,632
15,568,8555,-6879,-604,952,249,575
17,698,8555,-6879,-619,982,234,521
19,677,8555,-6879,-642,939,251,489
19,-121,8555,-6879,-674,862,272,465
18,-1560,8537,-6879,-708,806,287,447
18,-2167,8537,-6879,-731,772,295,430
18,-1531,8537,-6879,-740,724,288,411
19,-592,8537,-6879,-744,660,264,401
19,49,8471,-6879,-753,618,237,417
17,540,8471,-6879,-770,560,199,437
15,781,8471,-6879,-802,478,147,441
16,760,8471,-6879,-841,489,113,458
18,690,8391,-6879,-852,580,127,513
21,387,8391,-6879,-825,616,169,575
23,52,8391,-6879,-779,597,200,615
24,126,8391,-6879,-717,623,214,636
25,66,8316,-6879,-646,715,217,663
26,-409,8316,-6879,-580,769,197,704
26,-643,8316,-6879,-524,744,157,718
27,-190,8316,-6879,-479,737,120,696
27,635,8229,-6879,-451,774,89,681
27,958,8229,-6879,-448,779,69,695
28,506,8229,-6879,-476,733,86,717
30,-193,8229,-6879,-532,715,134,740
31,-510,8130,-6879,-601,751,182,756
31,-494,8130,-6879,-662,780,217,760
32,-636,8130,-6879,-708,778,239,769
32,-668,8130,-6879,-742,722,246,767
31,-361,7995,-6879,-761,598,237,710
31,-312,7995,-6879,-764,496,238,618
30,-722,7995,-6879,-749,507,272,542
31,-946,7995,-6879,-715,582,310,498
31,-1082,7830,-6879,-673,601,311,481
31,-1159,7830,-6879,-638,513,289,486
30,25,7830,-6879,-615,396,280,511
29,1903,7830,-6879,-603,359,290,549
28,2471,7616,-6879,-601,422,291,587
29,1675,7616,-6879,-611,557,262,627
29,790,7616,-6879,-637,695,225,669
30,414,7616,-6879,-681,775,213,720
30,293,7355,-6879,-719,830,201,773
31,64,7355,-6879,-731,894,153,812
34,-358,7355,-6879,-717,937,70,833
39,-677,7355,-6879,-689,877,-15,829
42,-974,7104,-6879,-661,656,-47,814
44,-1311,7104,-6879,-653,420,0,812
43,-771,7104,-6879,-675,324,90,814
43,541,7104,-6879,-693,325,182,812
42,1240,6876,-6879,-677,335,248,815
42,989,6876,-6879,-656,365,290,831
42,194,6876,-6879,-656,373,299,843
42,-767,6876,-6879,-663,305,266,844
41,-1080,6650,-6879,-658,351,207,854
39,-549,6650,-6879,-641,621,152,869
37,-44,6650,-6879,-613,918,113,868
35,-406,6650,-6879,-581,1058,77,853
34,-1282,6375,-6879,-562,1057,25,833
33,-1051,6375,-6879,-550,1001,-25,811
32,316,6375,-6879,-546,966,-23,788
32,1189,6375,-6879,-553,983,49,770
33,1234,6062,-6879,-574,1019,147,756
35,953,6062,-6879,-608,1057,231,740
38,458,6062,-6879,-632,978,304,713
40,-157,6062,-6879,-632,701,364,664
40,-361,5756,-6879,-621,399,375,578
39,2,5756,-6879,-609,221,308,439
39,373,5756,-6879,-585,262,193,277
38,216,5756,-6879,-544,529,127,183
37,-465,5445,-6879,-504,814,181,195
36,-807,5445,-6879,-475,972,308,268
35,-370,5445,-6879,-452,1041,426,349
33,107,5445,-6879,-441,1076,511,405
31,304,5118,-6879,-441,1108,575,427
29,500,5118,-6879,-451,1141,621,419
30,502,5118,-6879,-475,1140,644,373
32,492,5118,-6879,-487,1097,650,296
37,777,4767,-6879,-443,1058,654,209
40,758,4767,-6879,-362,992,645,121
42,320,4767,-6879,-299,858,587,8
42,25,4767,-6879,-263,760,478,-148
41,-363,4419,-6879,-237,789,362,-306
40,-1067,4419,-6879,-219,883,272,-394
39,-1319,4419,-6879,-222,986,187,-370
36,-765,4419,-6879,-257,1082,133,-235
33,20,4078,-6879,-336,1126,182,-17
31,337,4078,-6879,-438,1120,311,228
31,201,4078,-6879,-537,1063,429,442
31,212,4078,-6879,-614,942,492,597
30,214,3718,-6879,-641,801,500,685
27,-49,3718,-6879,-623,712,471,720
27,-11,3718,-6879,-587,703,426,737
27,45,3718,-6879,-544,748,376,753
26,-375,3365,-6879,-494,767,347,769
26,-371,3365,-6879,-439,689,345,778
26,69,3365,-6879,-390,583,349,766
27,270,3365,-6879,-364,549,345,731
27,451,3025,-6879,-1332,675,334,683
28,360,3025,-6879,-1330,726,281,617
29,-289,3025,-6879,-1331,787,219,541
29,-574,3025,-6879,-1327,810,181,481
29,-139,2693,-6879,-1311,720,141,424
31,-24,2693,-6879,-1280,626,99,339
30,-475,2693,-6879,-1235,687,104,259
29,-617,2693,-6879,-1176,877,139,233
27,15,2347,-6879,-1114,1113,139,254
26,542,2347,-6879,-1065,1327,109,296
25,145,2347,-6879,-1039,1471,99,334
26,-566,2347,-6879,-1037,1530,140,369
27,-728,2004,-6879,-1070,1500,215,404
27,-74,2004,-6879,-1124,1363,285,415
27,675,2004,-6879,-1148,1110,330,386
26,833,2004,-6879,-1123,886,338,327
26,635,1713,-6879,-1055,823,306,254
27,258,1713,-6879,-952,862,237,174
27,-15,1713,-6879,-854,878,142,95
26,245,1713,-6879,-795,858,78,55
23,551,1468,-6879,-769,911,113,115
22,383,1468,-6879,-770,1032,219,269
21,-336,1468,-6879,-803,1142,315,438
21,-1332,1468,-6879,-854,1191,362,565
21,-1363,1250,-6879,-892,1125,352,634
21,-60,1250,-6879,-907,990,301,648
20,863,1250,-6879,-919,941,254,630
21,328,1250,-6879,-940,1034,234,623
23,-447,1031,-6879,-965,1155,252,636
25,202,1031,-6879,-991,1221,321,655
28,1632,1031,-6879,-1008,1239,405,671
30,1411,1031,-6879,-1001,1212,454,677
31,-125,829,-6879,-977,1164,463,667
31,-719,829,-6879,-949,1135,446,639
32,-207,829,-6879,-928,1119,413,620
34,426,829,-6879,-912,1030,346,608
37,769,671,-6879,-892,872,243,558
40,679,671,-6879,-851,878,161,492
42,-49,671,-6879,-770,1051,156,487
44,-761,671,-6879,-677,1128,209,548
46,-677,565,-6879,-619,1066,263,623
47,-254,565,-6879,-613,978,285,680
46,-169,565,-6879,-628,915,268,726
44,-248,565,-6879,-624,889,231,780
43,-49,536,-6879,-616,918,226,850
43,312,536,-6879,-627,985,278,922
43,366,536,-6879,-652,1025,357,960
43,-252,536,-6879,-677,971,413,945
45,-1244,575,-6879,-687,847,403,887
47,-1682,575,-6879,-690,824,303,783
49,-1112,575,-6879,-706,962,111,606
52,74,575,-6879,-724,1154,-87,389
54,1194,687,-6879,-716,1277,-156,230
55,1695,687,-6879,-659,1209,-101,163
55,1395,687,-6879,-567,1066,-20,169
56,458,687,-6879,-495,1050,69,239
57,-147,852,-6879,-470,1163,162,341
59,179,852,-6879,-471,1284,250,455
60,138,852,-6879,-467,1276,361,574
61,-703,852,-6879,-453,1160,490,670
61,-1027,1051,-6879,-428,1080,603,718
61,-625,1051,-6879,-394,1101,683,708
61,-337,1051,-6879,-340,1201,707,632
60,-341,1051,-6879,-263,1301,676,511
59,-296,1273,-6879,-179,1269,603,388
57,-93,1273,-6879,-107,1137,500,293
57,389,1273,-6879,-61,1138,417,243
57,663,1273,-6879,-56,1290,407,250
59,150,1501,-6879,-96,1410,468,298
58,-230,1501,-6879,-141,1413,560,355
57,124,1501,-6879,-137,1337,637,405
57,338,1501,-6879,-89,1265,678,464
57,19,1764,-6879,-50,1223,686,522
58,-125,1764,-6879,-40,1212,679,534
59,215,1764,-6879,-38,1246,660,495
61,42,1764,-6879,-33,1309,616,434
61,-964,2059,-6879,-20,1364,528,379
61,-875,2059,-6879,-2,1269,406,336
61,731,2059,-6879,5,983,284,283
61,1551,2059,-6879,-3,775,173,201
59,786,2373,-6879,-10,769,48,109
56,-368,2373,-6879,-9,775,-72,48
53,-903,2373,-6879,-8,839,-125,53
51,-527,2373,-6879,12,1100,-86,139
49,273,2678,-6879,50,1383,19,235
48,585,2678,-6879,74,1577,156,260
47,282,2678,-6879,86,1721,301,238
46,230,2678,-6879,82,1764,453,247
46,631,2974,-6879,60,1720,589,307
44,785,2974,-6879,28,1654,688,383
42,452,2974,-6879,18,1574,744,459
40,167,2974,-6879,60,1425,750,514
38,146,3299,-6879,122,1147,696,495
36,-156,3299,-6879,182,877,597,399
34,-946,3299,-6879,231,862,499,298
34,-1457,3299,-6879,223,1032,442,232
34,-929,3652,-6879,159,1149,410,201
34,74,3652,-6879,106,1210,347,193
34,534,3652,-6879,72,1321,267,203
33,357,3652,-6879,35,1473,269,260
32,6,4032,-6879,13,1543,363,342
31,-3,4032,-6879,24,1495,444,399
30,171,4032,-6879,43,1475,468,441
27,-92,4032,-6879,56,1557,482,508
24,-793,4424,-6879,75,1611,513,593
21,-1164,4424,-6879,99,1577,526,660
19,118,4424,-6879,139,1450,504,702
18,2178,4424,-6879,204,1244,458,715
17,1914,4834,-6879,262,1182,398,697
17,-571,4834,-6879,276,1357,365,679
18,-2176,4834,-6879,241,1562,397,691
19,-1509,4834,-6879,191,1664,467,741
18,247,5254,-6879,174,1644,522,801
17,1358,5254,-6879,177,1477,538,848
18,1337,5254,-6879,163,1271,534,893
19,611,5254,-6879,160,1161,533,944
19,-470,5651,-6879,183,1101,526,983
18,-1223,5651,-6879,194,1052,504,1000
15,-1074,5651,-6879,190,1038,488,1014
11,-351,5651,-6879,210,1005,481,1012
7,287,6024,-6879,265,967,467,959
4,879,6024,-6879,342,1055,458,864
2,1481,6024,-6879,413,1247,464,771
1,1251,6024,-6879,452,1404,468,698
0,82,6356,-6879,464,1468,463,633
0,-1003,6356,-6879,475,1460,457,576
1,-1319,6356,-6879,495,1357,450,547
1,-791,6356,-6879,508,1196,443,550
1,-49,6636,-6879,508,1137,452,559
1,79,6636,-6879,519,1181,470,557
1,-338,6636,-6879,553,1216,469,543
0,-846,6636,-6879,597,1203,425,505
0,-800,6852,-6879,639,1210,310,439
-1,-95,6852,-6879,673,1350,132,378
-2,426,6852,-6879,688,1578,-7,388
-3,700,6852,-6879,674,1719,8,502
-4,729,7015,-6879,640,1688,150,661
-4,29,7015,-6879,613,1617,310,805
-4,-418,7015,-6879,597,1627,445,919
-4,438,7015,-6879,586,1674,537,989
-3,1503,7170,-6879,579,1690,585,1013
-1,1648,7170,-6879,581,1633,614,1017
0,1443,7170,-6879,592,1534,636,1028
0,1388,7170,-6879,598,1474,645,1035
-2,703,7310,-6879,580,1464,641,1026
-5,-489,7310,-6879,553,1482,624,986
-7,-1260,7310,-6879,587,1527,592,930
-9,-1539,7310,-6879,688,1571,542,883
-9,-1169,7429,-6879,760,1570,487,840
-8,-571,7429,-6879,776,1537,456,806
-9,-489,7429,-6879,772,1529,449,797
-10,-622,7429,-6879,750,1544,446,814
-10,-527,7517,-6879,723,1546,443,845
-10,-237,7517,-6879,714,1526,445,872
-9,-33,7517,-6879,723,1497,448,903
-8,-62,7517,-6879,729,1492,450,943
-8,43,7585,-6879,718,1508,442,981
-8,673,7585,-6879,692,1531,425,1006
-7,946,7585,-6879,654,1586,406,1020
-6,103,7585,-6879,619,1666,394,1027
-6,-534,7651,-6879,603,1733,387,1042
-5,-75,7651,-6879,605,1765,382,1063
-6,511,7651,-6879,615,1765,380,1080
-6,390,7651,-6879,623,1736,381,1089
-6,-128,7687,-6879,626,1660,381,1079
-7,-303,7687,-6879,615,1593,383,1059
-7,-43,7687,-6879,590,1590,394,1031
-7,185,7687,-6879,581,1605,404,984
-7,150,7702,-6879,611,1597,401,922
-7,151,7702,-6879,657,1560,385,871
-7,437,7702,-6879,693,1519,365,858
-8,705,7702,-6879,722,1506,356,870
-7,513,7702,-6879,763,1516,360,866
-6,-71,7702,-6879,814,1549,368,854
-6,-815,7702,-6879,852,1587,378,876
-6,-1495,7702,-6879,862,1588,387,949
-6,-1287,7711,-6879,854,1573,386,1046
-7,-151,7711,-6879,839,1573,375,1127
-9,710,7711,-6879,830,1553,362,1173
-11,773,7711,-6879,833,1505,346,1202
-13,392,7744,-6879,842,1460,323,1214
-13,12,7744,-6879,852,1451,287,1189
-13,-130,7744,-6879,859,1471,247,1155
-13,-133,7744,-6879,857,1452,233,1150
-12,8,7766,-6879,870,1374,250,1161
-11,345,7766,-6879,927,1285,270,1169
-10,374,7766,-6879,1007,1219,280,1176
-9,-102,7766,-6879,1073,1197,286,1184
-8,-539,7777,-6879,1111,1231,295,1186
-7,-433,7777,-6879,1118,1314,310,1185
-7,-5,7777,-6879,1103,1402,327,1192
-6,107,7777,-6879,1067,1455,339,1193
-6,-102,7765,-6879,1013,1452,336,1159
-6,-279,7765,-6879,981,1381,302,1097
-5,-335,7765,-6879,1006,1321,248,1045
-3,-353,7765,-6879,1066,1332,204,1027
-2,-229,7765,-6879,1111,1368,192,1025
-2,269,7765,-6879,1115,1413,201,1020
-2,1125,7765,-6879,1086,1464,208,1017
0,1466,7765,-6879,1044,1471,218,1019
0,586,7802,-6879,1011,1403,230,1013
0,-384,7802,-6879,995,1304,239,980
0,-458,7802,-6879,990,1245,246,937
-1,-122,7802,-6879,975,1250,247,917
-3,188,7846,-6879,945,1309,241,923
-5,416,7846,-6879,919,1384,227,937
-6,427,7846,-6879,901,1401,199,944
-7,229,7846,-6879,887,1363,159,944
-8,42,7884,-6879,882,1390,100,939
-7,40,7884,-6879,894,1497,29,935
-7,44,7884,-6879,920,1572,-17,951
-6,-331,7884,-6879,951,1549,-10,992
-7,-870,7889,-6879,981,1486,39,1045
-7,-1037,7889,-6879,1007,1463,92,1090
-8,-474,7889,-6879,1025,1461,129,1109
-9,398,7889,-6879,1022,1438,164,1112
-9,607,7910,-6879,997,1409,204,1134
-9,259,7910,-6879,966,1393,229,1176
-11,-71,7910,-6879,949,1372,228,1208
-13,-283,7910,-6879,957,1300,207,1209
-14,-384,7962,-6879,985,1167,179,1187
-15,-200,7962,-6879,1022,1052,148,1159
-16,209,7962,-6879,1055,1044,117,1122
-17,339,7962,-6879,1076,1139,112,1098
-18,262,8023,-6879,1085,1248,145,1090
-20,422,8023,-6879,1088,1310,189,1063
-22,529,8023,-6879,1090,1331,222,1009
-23,222,8023,-6879,1092,1324,242,951
-25,-189,8078,-6879,1092,1288,239,895
-25,-290,8078,-6879,1095,1232,207,851
-24,-151,8078,-6879,1106,1211,163,830
-24,-114,8078,-6879,1117,1254,134,828
-24,-267,8102,-6879,1127,1304,123,846
-25,-479,8102,-6879,1131,1266,126,889
-25,-624,8102,-6879,1128,1174,130,931
-24,-697,8102,-6879,1124,1151,114,960
-21,-590,8132,-6879,1121,1210,82,988
-18,-191,8132,-6879,1111,1297,68,1019
-18,312,8132,-6879,1098,1375,90,1047
-18,505,8132,-6879,1102,1433,110,1076
-19,303,8141,-6879,1129,1449,103,1134
-20,92,8141,-6879,1158,1418,97,1228
-23,103,8141,-6879,1173,1370,121,1320
-26,566,8141,-6879,1177,1294,171,1382
-29,1191,8106,-6879,1177,1174,215,1407
-31,1019,8106,-6879,1176,1064,243,1418
-31,4,8106,-6879,1178,1001,264,1439
-30,-912,8106,-6879,1188,938,270,1458
-30,-998,8037,-6879,1203,877,247,1443
-31,-198,8037,-6879,1222,859,204,1388
-31,578,8037,-6879,1249,859,179,1319
-31,291,8037,-6879,1277,852,202,1258
-30,-507,7962,-6879,1299,846,242,1211
-31,-551,7962,-6879,1317,925,259,1202
-30,190,7962,-6879,1331,1116,248,1224
-29,846,7962,-6879,1342,1283,239,1249
-29,508,7932,-6879,1377,1330,245,1275
-28,-730,7932,-6879,1442,1318,250,1295
-28,-1372,7932,-6879,1491,1300,253,1309
-28,-615,7932,-6879,1486,1275,276,1319
-28,270,7905,-6879,1424,1273,311,1318
-29,175,7905,-6879,1333,1275,336,1309
-30,-125,7905,-6879,1264,1226,328,1302
-31,-1,7905,-6879,1233,1153,259,1286
-31,259,7858,-6879,1223,1158,152,1243
-29,606,7858,-6879,1231,1243,88,1194
-29,743,7858,-6879,1263,1259,120,1171
-29,254,7858,-6879,1314,1177,210,1177
-31,-269,7798,-6879,1369,1100,299,1208
-33,-314,7798,-6879,1418,1076,368,1258
-34,-393,7798,-6879,1457,1114,426,1320
-34,-510,7798,-6879,1472,1178,472,1382
-34,-230,7754,-6879,1447,1211,502,1435
-34,198,7754,-6879,1403,1210,517,1487
-34,303,7754,-6879,1375,1216,524,1538
-33,73,7754,-6879,1353,1230,516,1578
-31,-113,7750,-6879,1327,1236,489,1609
-31,53,7750,-6879,1309,1250,462,1650
-32,464,7750,-6879,1298,1279,453,1703
-33,571,7750,-6879,1292,1293,452,1753
-34,277,7722,-6879,1304,1252,446,1796
-36,384,7722,-6879,1341,1159,434,1830
-38,809,7722,-6879,1389,1087,424,1848
-40,232,7722,-6879,1428,1094,421,1855
-42,-917,7666,-6879,1448,1143,418,1850
-42,-1112,7666,-6879,1447,1190,407,1828
-42,-599,7666,-6879,1427,1228,387,1792
-42,-126,7666,-6879,1390,1262,364,1748
-41,301,7607,-6879,1346,1300,343,1699
-38,559,7607,-6879,1308,1345,330,1648
-36,528,7607,-6879,1289,1386,324,1607
-33,415,7607,-6879,1285,1411,326,1584
-31,214,7592,-6879,1287,1413,334,1578
-31,-21,7592,-6879,1297,1390,344,1578
-32,-164,7592,-6879,1320,1338,349,1567
-33,-240,7592,-6879,1349,1271,345,1538
-34,-260,7628,-6879,1371,1219,336,1506
-35,-322,7628,-6879,1387,1188,325,1497
-37,-296,7628,-6879,1399,1171,310,1498
-38,-66,7628,-6879,1407,1167,288,1497
-39,135,7658,-6879,1412,1172,263,1492
-40,137,7658,-6879,1413,1183,240,1480
-40,40,7658,-6879,1411,1193,220,1463
-40,221,7658,-6879,1409,1196,209,1453
-40,643,7674,-6879,1407,1185,205,1455
-40,493,7674,-6879,1414,1165,201,1456
-39,-196,7674,-6879,1431,1142,197,1438
-38,-491,7674,-6879,1440,1119,192,1402
-37,-382,7656,-6879,1425,1097,187,1362
-36,-377,7656,-6879,1384,1080,183,1330
-35,-489,7656,-6879,1337,1073,183,1304
-34,-508,7656,-6879,1313,1080,187,1279
-34,-381,7610,-6879,1324,1087,196,1254
-35,-202,7610,-6879,1354,1088,209,1230
-37,-46,7610,-6879,1384,1089,219,1202
-38,106,7610,-6879,1409,1095,217,1154
-38,297,7540,-6879,1425,1101,216,1088
-38,390,7540,-6879,1429,1100,224,1020
-39,216,7540,-6879,1423,1101,230,964
-39,-23,7540,-6879,1409,1110,229,927
-39,228,7456,-6879,1396,1126,225,901
-39,852,7456,-6879,1388,1144,220,885
-39,835,7456,-6879,1390,1149,215,888
-39,89,7456,-6879,1410,1118,209,906
-39,-571,7393,-6879,1465,1084,207,941
-38,-655,7393,-6879,1569,1096,218,994
-37,-296,7393,-6879,1682,1128,239,1052
-36,-87,7393,-6879,1746,1145,262,1099
-36,-94,7317,-6879,1754,1146,285,1132
-37,51,7317,-6879,1729,1156,308,1167
-38,324,7317,-6879,1693,1186,326,1203
-39,416,7317,-6879,1658,1220,336,1220
-40,199,7195,-6879,1628,1248,343,1215
-41,-171,7195,-6879,1600,1268,352,1199
-41,-194,7195,-6879,1566,1274,362,1182
-41,208,7195,-6879,1528,1263,367,1173
-41,99,7006,-6879,1499,1240,364,1165
-43,-589,7006,-6879,1482,1206,347,1134
-45,-925,7006,-6879,1468,1162,316,1072
-46,-688,7006,-6879,1462,1110,276,996
-46,-14,6771,-6879,1463,1060,231,917
-44,590,6771,-6879,1475,1030,189,855
-43,507,6771,-6879,1497,1026,157,842
-43,99,6771,-6879,1515,1043,135,880
-43,-132,6546,-6879,1520,1067,124,944
-43,-128,6546,-6879,1512,1089,118,1014
-44,103,6546,-6879,1492,1106,114,1071
-44,395,6546,-6879,1465,1113,111,1121
-44,574,6340,-6879,1440,1114,105,1192
-44,312,6340,-6879,1433,1109,107,1290
-43,-549,6340,-6879,1460,1083,128,1402
-41,-1074,6340,-6879,1530,1035,160,1515
-39,-646,6146,-6879,1620,1002,191,1601
-37,-64,6146,-6879,1706,997,220,1635
-36,149,6146,-6879,1767,995,242,1641
-34,215,6146,-6879,1778,982,256,1657
-34,194,5925,-6879,1735,962,260,1675
-34,188,5925,-6879,1663,944,257,1663
-35,410,5925,-6879,1586,926,246,1601
-35,573,5925,-6879,1517,905,228,1505
-35,213,5659,-6879,1465,883,206,1396
-34,-297,5659,-6879,1456,864,186,1300
-34,-96,5659,-6879,1490,846,170,1236
-35,419,5659,-6879,1520,828,161,1188
-35,358,5366,-6879,1518,807,157,1132
-34,-12,5366,-6879,1493,780,161,1064
-33,-128,5366,-6879,1454,749,171,1003
-33,69,5366,-6879,1403,723,183,961
-33,242,5053,-6879,1350,707,194,943
-33,105,5053,-6879,1307,707,207,954
-33,-277,5053,-6879,1276,718,220,981
-33,-529,5053,-6879,1254,734,230,1003
-34,-395,4743,-6879,1238,745,237,1010
-35,-172,4743,-6879,1227,735,238,990
-36,-90,4743,-6879,1237,699,231,958
-36,-19,4743,-6879,1295,658,217,946
-36,-47,4439,-6879,1394,636,196,942
-37,-355,4439,-6879,1483,630,170,925
-37,-561,4439,-6879,1529,633,141,911
-37,-185,4439,-6879,1525,644,112,917
-36,350,4165,-6879,1481,663,85,939
-35,373,4165,-6879,1414,686,52,973
-34,159,4165,-6879,1336,713,12,1014
-34,230,4165,-6879,1256,738,-20,1064
-34,389,3928,-6879,1182,749,-32,1123
-35,174,3928,-6879,1132,746,-32,1178
-36,-374,3928,-6879,1110,741,-28,1222
-36,-653,3928,-6879,1109,729,-20,1263
-36,-407,3700,-6879,1121,704,-7,1299
-36,-73,3700,-6879,1158,669,5,1319
-36,84,3700,-6879,1226,637,22,1331
-36,84,3700,-6879,1302,615,43,1340
-36,70,3473,-6879,1355,604,66,1340
-36,230,3473,-6879,1371,601,87,1323
-35,368,3473,-6879,1337,604,104,1295
-35,455,3473,-6879,1256,611,117,1273
-34,438,3236,-6879,1152,619,124,1251
-33,-164,3236,-6879,1054,628,125,1225
-31,-687,3236,-6879,987,633,123,1200
-30,-228,3236,-6879,956,631,120,1175
-30,362,3007,-6879,953,630,117,1163
-30,282,3007,-6879,972,631,112,1169
-30,-18,3007,-6879,999,632,103,1187
-30,-152,3007,-6879,1021,635,93,1210
-31,-220,2783,-6879,1042,645,90,1226
-31,-180,2783,-6879,1057,654,90,1221
-29,20,2783,-6879,1058,659,92,1196
-29,377,2783,-6879,1046,667,97,1160
-30,679,2559,-6879,1031,685,106,1116
-31,486,2559,-6879,1025,699,115,1069
-31,75,2559,-6879,1032,699,120,1031
-31,-138,2559,-6879,1044,690,123,1015
-31,-438,2355,-6879,1052,680,125,1024
-32,-907,2355,-6879,1061,670,125,1042
-32,-975,2355,-6879,1075,658,123,1054
-33,-460,2355,-6879,1095,642,122,1053
-32,91,2177,-6879,1117,612,122,1044
-31,376,2177,-6879,1135,564,122,1052
-30,389,2177,-6879,1145,508,119,1096
-30,51,2177,-6879,1144,462,113,1156
-30,-472,2036,-6879,1136,432,106,1205
-30,-595,2036,-6879,1125,420,101,1239
-30,-199,2036,-6879,1115,423,97,1239
-29,73,2036,-6879,1105,435,93,1200
-27,129,1902,-6879,1104,451,90,1150
-27,252,1902,-6879,1109,467,87,1112
-26,169,1902,-6879,1115,481,86,1089
-26,-117,1902,-6879,1125,491,88,1074
-24,-12,1752,-6879,1145,495,92,1040
-22,352,1752,-6879,1177,499,93,958
-20,431,1752,-6879,1215,502,88,834
-19,297,1752,-6879,1243,505,78,717
-20,121,1580,-6879,1250,509,65,649
-22,16,1580,-6879,1238,510,53,624
-23,-72,1580,-6879,1211,504,42,613
-23,-280,1580,-6879,1184,494,31,588
-23,-330,1412,-6879,1168,482,23,566
-22,7,1412,-6879,1159,467,19,566
-22,491,1412,-6879,1153,451,22,579
-20,472,1412,-6879,1154,434,31,602
-18,-246,1309,-6879,1158,412,41,644
-15,-717,1309,-6879,1158,380,53,697
-12,-351,1309,-6879,1158,351,63,742
-9,50,1309,-6879,1161,342,69,763
-7,-1,1277,-6879,1151,355,74,762
-6,-62,1277,-6879,1123,379,81,768
-7,-54,1277,-6879,1088,407,88,808
-8,-146,1277,-6879,1055,433,94,864
-9,-184,1289,-6879,1032,449,99,916
-11,-52,1289,-6879,1037,450,107,960
-12,198,1289,-6879,1067,428,113,1003
-14,404,1289,-6879,1091,384,116,1050
-16,508,1293,-6879,1100,338,116,1083
-18,551,1293,-6879,1101,308,109,1066
-20,245,1293,-6879,1093,299,95,1001
-22,-59,1293,-6879,1082,307,78,917
-24,235,1282,-6879,1070,325,58,830
-24,290,1282,-6879,1074,346,38,754
-23,-358,1282,-6879,1134,360,19,702
-22,-846,1282,-6879,1241,368,3,658
-21,-681,1292,-6879,1327,377,-10,608
-20,-36,1292,-6879,1352,394,-20,581
-20,464,1292,-6879,1322,412,-22,591
-20,314,1292,-6879,1258,428,-18,621
-19,-48,1342,-6879,1176,441,-12,663
-18,-86,1342,-6879,1081,449,-2,715
-17,-13,1342,-6879,981,451,9,770
-17,12,1342,-6879,892,447,20,830
-17,87,1453,-6879,822,439,30,895
-17,1,1453,-6879,770,425,34,966
-17,-83,1453,-6879,736,396,34,1035
-16,104,1453,-6879,723,363,32,1065
-16,153,1616,-6879,729,346,29,1033
-17,-38,1616,-6879,747,339,22,967
-18,-140,1616,-6879,776,331,14,898
-19,-132,1616,-6879,814,315,5,843
-20,-108,1821,-6879,854,290,-3,801
-22,87,1821,-6879,884,251,-14,750
-23,344,1821,-6879,893,213,-23,691
-24,170,1821,-6879,881,194,-30,651
-25,-215,2034,-6879,852,197,-34,635
-26,-404,2034,-6879,815,212,-36,628
-25,-430,2034,-6879,781,233,-37,628
-23,29,2034,-6879,762,252,-39,634
-22,644,2218,-6879,760,271,-40,631
-21,420,2218,-6879,773,286,-40,605
-20,-128,2218,-6879,799,289,-39,559
-20,-147,2218,-6879,831,274,-37,498
-20,-15,2371,-6879,858,249,-30,429
-21,3,2371,-6879,870,234,-20,359
-23,44,2371,-6879,867,233,-6,287
-24,106,2371,-6879,856,242,11,216
-25,167,2503,-6879,845,255,29,157
-24,191,2503,-6879,836,267,45,123
-23,43,2503,-6879,834,276,58,109
-21,-173,2503,-6879,840,282,67,100
-20,-265,2649,-6879,849,286,72,105
-18,-197,2649,-6879,858,292,76,144
-18,181,2649,-6879,864,299,79,213
-18,520,2649,-6879,864,307,82,290
-19,483,2819,-6879,859,315,84,366
-20,146,2819,-6879,856,321,83,425
-20,-457,2819,-6879,857,325,78,448
-20,-666,2819,-6879,863,325,75,466
-20,-355,3008,-6879,871,320,76,512
-20,-95,3008,-6879,884,312,77,575
-20,81,3008,-6879,896,311,74,618
-18,103,3008,-6879,909,321,67,615
-18,-21,3202,-6879,929,333,60,587
-17,-26,3202,-6879,944,341,53,558
-16,14,3202,-6879,943,346,53,535
-15,5,3202,-6879,941,350,59,538
-17,36,3374,-6879,949,357,67,568
-17,105,3374,-6879,953,362,75,612
-17,368,3374,-6879,953,367,79,664
-17,515,3374,-6879,958,381,83,696
-16,45,3528,-6879,970,401,86,670
-16,-406,3528,-6879,981,423,84,596
-16,-160,3528,-6879,976,442,81,509
-16,418,3528,-6879,955,448,77,428
-17,785,3670,-6879,932,436,73,356
-18,726,3670,-6879,914,413,68,296
-18,188,3670,-6879,899,378,60,259
-18,-277,3670,-6879,881,335,54,250
-17,-115,3826,-6879,860,293,48,257
-17,90,3826,-6879,851,252,40,264
-17,-223,3826,-6879,862,213,32,264
-17,-530,3826,-6879,882,190,23,258
-17,-418,4013,-6879,907,187,16,264
-16,-138,4013,-6879,934,197,12,298
-15,29,4013,-6879,958,200,7,343
-14,-29,4013,-6879,968,182,3,391
-13,-62,4222,-6879,967,161,3,440
-12,-94,4222,-6879,969,161,5,488
-13,-279,4222,-6879,977,177,9,524
-14,-272,4222,-6879,985,193,16,539
-15,-59,4434,-6879,989,205,22,540
-15,117,4434,-6879,995,214,27,536
-15,371,4434,-6879,1013,220,29,551
-16,593,4434,-6879,1043,228,28,601
-17,131,4607,-6879,1077,240,23,660
-19,-655,4607,-6879,1106,260,20,688
-19,-685,4607,-6879,1124,283,18,675
-19,-247,4607,-6879,1128,304,18,646
-19,-105,4749,-6879,1116,313,17,620
-19,-186,4749,-6879,1093,306,17,602
-19,-197,4749,-6879,1068,277,17,598
-18,-173,4749,-6879,1040,226,18,609
-17,-193,4884,-6879,1008,178,19,614
-15,-82,4884,-6879,974,149,20,595
-15,214,4884,-6879,943,144,24,543
-15,418,4884,-6879,920,157,30,473
-14,369,5033,-6879,904,178,38,418
-13,205,5033,-6879,889,198,49,396
-12,198,5033,-6879,886,217,64,402
-13,445,5033,-6879,902,235,81,423
-13,329,5192,-6879,929,251,98,453
-12,-373,5192,-6879,954,261,114,504
-11,-787,5192,-6879,976,263,128,580
-11,-633,5192,-6879,993,263,137,660
-10,-256,5321,-6879,996,264,141,708
-10,130,5321,-6879,983,265,138,712
-9,315,5321,-6879,980,264,134,703
-7,337,5321,-6879,1003,257,132,720
-5,421,5444,-6879,1034,242,134,776
-2,567,5444,-6879,1054,221,140,859
-1,492,5444,-6879,1063,199,149,947
-1,199,5444,-6879,1061,181,159,998
-1,-72,5595,-6879,1044,169,170,973
-1,-51,5595,-6879,1012,160,186,897
-1,315,5595,-6879,974,150,205,829
-2,470,5595,-6879,942,140,225,787
-2,-196,5799,-6879,921,132,244,762
-1,-1273,5799,-6879,914,126,258,736
0,-1591,5799,-6879,923,125,267,696
1,-1031,5799,-6879,942,126,271,628
2,-378,6032,-6879,962,124,270,525
2,-34,6032,-6879,976,120,265,416
3,30,6032,-6879,982,120,262,340
4,79,6032,-6879,979,125,260,301
5,227,6225,-6879,965,130,254,283
6,249,6225,-6879,944,132,241,302
5,140,6225,-6879,930,121,219,363
4,189,6225,-6879,941,102,187,434
3,389,6381,-6879,1005,94,151,495
3,572,6381,-6879,1131,109,118,521
2,560,6381,-6879,1288,149,91,495
2,270,6381,-6879,1409,207,72,422
2,22,6521,-6879,1442,264,60,326
2,-87,6521,-6879,1399,299,50,235
1,-323,6521,-6879,1316,305,43,166
1,-542,6521,-6879,1216,287,40,122
0,-468,6687,-6879,1109,261,43,93
1,-173,6687,-6879,1005,237,51,85
0,201,6687,-6879,909,219,65,93
0,662,6687,-6879,821,204,81,86
0,931,6867,-6879,752,186,95,81
0,752,6867,-6879,724,164,101,115
0,308,6867,-6879,745,140,100,169
2,-418,6867,-6879,803,117,93,192
3,-802,7014,-6879,871,102,83,171
5,-259,7014,-6879,922,99,73,137
7,187,7014,-6879,936,103,63,103
8,-66,7014,-6879,920,119,51,34
8,-359,7128,-6879,894,172,38,-103
7,-255,7128,-6879,876,246,28,-283
5,-72,7128,-6879,881,283,23,-441
4,-268,7128,-6879,910,270,23,-537
5,-613,7215,-6879,946,228,26,-566
7,-577,7215,-6879,974,181,36,-547
8,-315,7215,-6879,993,142,52,-524
9,-173,7215,-6879,1006,118,70,-535
10,28,7317,-6879,1021,105,88,-556
11,327,7317,-6879,1033,92,101,-548
11,499,7317,-6879,1027,68,110,-514
11,469,7317,-6879,999,41,113,-459
10,377,7434,-6879,955,30,110,-390
10,628,7434,-6879,906,47,102,-317
10,928,7434,-6879,862,80,92,-242
11,613,7434,-6879,828,116,82,-175
11,49,7565,-6879,812,148,68,-141
10,-239,7565,-6879,814,175,50,-152
10,-452,7565,-6879,834,195,34,-193
10,-615,7565,-6879,871,205,20,-244
11,-317,7730,-6879,914,206,12,-284
11,220,7730,-6879,942,199,11,-316
10,244,7730,-6879,949,186,17,-347
9,-244,7730,-6879,945,172,22,-352
8,-473,7917,-6879,939,157,25,-318
6,-276,7917,-6879,930,146,32,-276
5,25,7917,-6879,925,143,46,-251
6,282,7917,-6879,945,142,59,-257
8,215,8141,-6879,1010,137,67,-314
10,-167,8141,-6879,1104,129,72,-414
10,-310,8141,-6879,1170,125,78,-523
12,17,8141,-6879,1191,140,82,-608
14,256,8360,-6879,1204,172,79,-682
14,208,8360,-6879,1234,202,66,-757
15,61,8360,-6879,1264,237,42,-805
15,-314,8360,-6879,1268,289,11,-797
13,-562,8572,-6879,1237,317,-13,-732
10,-320,8572,-6879,1174,300,-27,-630
7,146,8572,-6879,1084,253,-34,-528
6,656,8572,-6879,981,194,-33,-464
6,747,8787,-6879,872,139,-27,-446
7,88,8787,-6879,767,88,-21,-464
7,-535,8787,-6879,683,31,-18,-512
7,-602,8787,-6879,624,-30,-18,-579
7,-403,9010,-6879,580,-77,-18,-650
8,-204,9010,-6879,537,-104,-24,-710
9,-198,9010,-6879,489,-113,-37,-757
10,-313,9010,-6879,460,-106,-51,-791
11,-210,9283,-6879,471,-84,-64,-798
12,93,9283,-6879,512,-53,-73,-771
12,353,9283,-6879,556,-22,-78,-722
13,562,9283,-6879,582,0,-79,-671
14,659,9566,-6879,586,8,-76,-635
16,525,9566,-6879,573,7,-67,-610
15,212,9566,-6879,554,-5,-55,-581
13,-74,9566,-6879,543,-30,-39,-557
13,-99,9837,-6879,548,-56,-21,-544
13,-24,9837,-6879,567,-76,-5,-546
13,-192,9837,-6879,592,-92,9,-558
14,-413,9837,-6879,617,-103,23,-557
15,-332,10073,-6879,636,-111,34,-536
16,-108,10073,-6879,640,-114,45,-503
16,-32,10073,-6879,626,-115,59,-473
16,-108,10073,-6879,601,-117,71,-455
14,-96,10293,-6879,581,-126,76,-450
13,63,10293,-6879,573,-143,75,-454
13,80,10293,-6879,575,-160,72,-470
14,250,10293,-6879,585,-160,64,-499
15,689,10539,-6879,601,-139,52,-531
15,599,10539,-6879,619,-104,38,-557
14,23,10539,-6879,638,-62,26,-566
14,-371,10539,-6879,651,-21,17,-566
13,-488,10759,-6879,649,15,11,-574
13,-476,10759,-6879,633,39,7,-591
12,-356,10759,-6879,606,41,6,-614
11,-122,10759,-6879,573,32,11,-648
13,71,10948,-6879,543,27,20,-684
15,139,10948,-6879,518,22,28,-699
17,-45,10948,-6879,495,7,29,-685
18,-448,10948,-6879,477,-19,25,-659
19,-480,11120,-6879,468,-54,17,-651
19,-48,11120,-6879,464,-91,15,-658
18,324,11120,-6879,462,-121,25,-666
17,455,11120,-6879,456,-144,40,-682
18,299,11334,-6879,446,-164,52,-713
19,-27,11334,-6879,439,-182,61,-742
21,-29,11334,-6879,437,-193,69,-777
23,391,11334,-6879,443,-190,76,-825
24,686,11594,-6879,456,-178,79,-873
25,655,11594,-6879,477,-160,75,-919
24,419,11594,-6879,499,-137,66,-961
24,42,11594,-6879,512,-114,54,-988
24,-269,11801,-6879,518,-100,43,-989
25,-291,11801,-6879,523,-94,33,-971
26,23,11801,-6879,533,-89,29,-938
26,172,11801,-6879,548,-81,34,-898
